# Cut-survival probability for electron-recoil events
# within the electron-recoil band
# Energy [keV] | Cut-survival probability
 0	0
 0.010001	0
 0.020002	0
 0.030003	0
 0.040004	0
 0.050005	0
 0.060006	0
 0.070007	0
 0.080008	0
 0.090009	0
 0.10001	0
 0.110011	0
 0.120012	0
 0.130013	0
 0.140014	0
 0.150015	0
 0.160016	0
 0.170017	0
 0.180018	0
 0.190019	0
 0.20002	0
 0.210021	0
 0.220022	0
 0.230023	0
 0.240024	0
 0.250025	0
 0.260026	0
 0.270027	0
 0.280028	0
 0.290029	0
 0.30003	0
 0.310031	0.104867
 0.320032	0.112628
 0.330033	0.12039
 0.340034	0.128151
 0.350035	0.135915
 0.360036	0.144536
 0.370037	0.153158
 0.380038	0.161779
 0.390039	0.170401
 0.40004	0.17902
 0.410041	0.187043
 0.420042	0.195067
 0.430043	0.20309
 0.440044	0.211114
 0.450045	0.219136
 0.460046	0.226746
 0.470047	0.234357
 0.480048	0.241968
 0.490049	0.249579
 0.50005	0.257189
 0.510051	0.264694
 0.520052	0.272199
 0.530053	0.279704
 0.540054	0.287209
 0.550055	0.294708
 0.560056	0.301099
 0.570057	0.30749
 0.580058	0.313881
 0.590059	0.320272
 0.60006	0.326657
 0.610061	0.332206
 0.620062	0.337755
 0.630063	0.343304
 0.640064	0.348853
 0.650065	0.354397
 0.660066	0.359114
 0.670067	0.363832
 0.680068	0.368549
 0.690069	0.373266
 0.70007	0.377979
 0.710071	0.382097
 0.720072	0.386214
 0.730073	0.390332
 0.740074	0.394449
 0.750075	0.398565
 0.760076	0.402474
 0.770077	0.406382
 0.780078	0.41029
 0.790079	0.414198
 0.80008	0.418101
 0.810081	0.421407
 0.820082	0.424713
 0.830083	0.42802
 0.840084	0.431326
 0.850085	0.434626
 0.860086	0.437251
 0.870087	0.439876
 0.880088	0.442501
 0.890089	0.445127
 0.90009	0.447752
 0.910091	0.450436
 0.920092	0.45312
 0.930093	0.455804
 0.940094	0.458488
 0.950095	0.461168
 0.960096	0.463366
 0.970097	0.465564
 0.980098	0.467762
 0.990099	0.46996
 1.0001	0.472154
 1.0101	0.474016
 1.0201	0.475877
 1.0301	0.477739
 1.0401	0.479601
 1.05011	0.481462
 1.06011	0.483324
 1.07011	0.485185
 1.08011	0.487047
 1.09011	0.488908
 1.10011	0.490766
 1.11011	0.492274
 1.12011	0.493781
 1.13011	0.495289
 1.14011	0.496797
 1.15012	0.498304
 1.16012	0.499812
 1.17012	0.50132
 1.18012	0.502828
 1.19012	0.504335
 1.20012	0.505836
 1.21012	0.506722
 1.22012	0.507609
 1.23012	0.508495
 1.24012	0.509382
 1.25013	0.510268
 1.26013	0.511155
 1.27013	0.512041
 1.28013	0.512928
 1.29013	0.513814
 1.30013	0.514701
 1.31013	0.515588
 1.32013	0.516474
 1.33013	0.517361
 1.34013	0.518247
 1.35014	0.519134
 1.36014	0.52002
 1.37014	0.520907
 1.38014	0.521793
 1.39014	0.52268
 1.40014	0.523564
 1.41014	0.524252
 1.42014	0.52494
 1.43014	0.525628
 1.44014	0.526317
 1.45015	0.527005
 1.46015	0.527693
 1.47015	0.528382
 1.48015	0.52907
 1.49015	0.529758
 1.50015	0.530446
 1.51015	0.531135
 1.52015	0.531823
 1.53015	0.532511
 1.54015	0.5332
 1.55016	0.533888
 1.56016	0.534576
 1.57016	0.535264
 1.58016	0.535953
 1.59016	0.536641
 1.60016	0.537324
 1.61016	0.53768
 1.62016	0.538036
 1.63016	0.538391
 1.64016	0.538747
 1.65017	0.539103
 1.66017	0.539459
 1.67017	0.539815
 1.68017	0.540171
 1.69017	0.540526
 1.70017	0.540882
 1.71017	0.541238
 1.72017	0.541594
 1.73017	0.54195
 1.74017	0.542306
 1.75018	0.542661
 1.76018	0.543017
 1.77018	0.543373
 1.78018	0.543729
 1.79018	0.544085
 1.80018	0.544439
 1.81018	0.544703
 1.82018	0.544968
 1.83018	0.545232
 1.84018	0.545496
 1.85019	0.545761
 1.86019	0.546025
 1.87019	0.546289
 1.88019	0.546554
 1.89019	0.546818
 1.90019	0.547082
 1.91019	0.547347
 1.92019	0.547611
 1.93019	0.547875
 1.94019	0.54814
 1.9502	0.548404
 1.9602	0.548668
 1.9702	0.548933
 1.9802	0.549197
 1.9902	0.549461
 2.0002	0.549724
 2.0102	0.549894
 2.0202	0.550063
 2.0302	0.550233
 2.0402	0.550403
 2.05021	0.550573
 2.06021	0.550743
 2.07021	0.550912
 2.08021	0.551082
 2.09021	0.551252
 2.10021	0.551422
 2.11021	0.551591
 2.12021	0.551761
 2.13021	0.551931
 2.14021	0.552101
 2.15022	0.552271
 2.16022	0.55244
 2.17022	0.55261
 2.18022	0.55278
 2.19022	0.55295
 2.20022	0.553117
 2.21022	0.553184
 2.22022	0.553251
 2.23022	0.553319
 2.24022	0.553386
 2.25023	0.553453
 2.26023	0.55352
 2.27023	0.553587
 2.28023	0.553654
 2.29023	0.553721
 2.30023	0.553788
 2.31023	0.553855
 2.32023	0.553922
 2.33023	0.55399
 2.34023	0.554057
 2.35024	0.554124
 2.36024	0.554191
 2.37024	0.554258
 2.38024	0.554325
 2.39024	0.554392
 2.40024	0.55446
 2.41024	0.554563
 2.42024	0.554665
 2.43024	0.554768
 2.44024	0.554871
 2.45025	0.554974
 2.46025	0.555076
 2.47025	0.555179
 2.48025	0.555282
 2.49025	0.555384
 2.50025	0.555487
 2.51025	0.55559
 2.52025	0.555692
 2.53025	0.555795
 2.54025	0.555898
 2.55026	0.556
 2.56026	0.556103
 2.57026	0.556206
 2.58026	0.556308
 2.59026	0.556411
 2.60026	0.556512
 2.61026	0.556536
 2.62026	0.556561
 2.63026	0.556585
 2.64026	0.556609
 2.65027	0.556634
 2.66027	0.556658
 2.67027	0.556683
 2.68027	0.556707
 2.69027	0.556731
 2.70027	0.556756
 2.71027	0.55678
 2.72027	0.556805
 2.73027	0.556829
 2.74027	0.556853
 2.75028	0.556878
 2.76028	0.556902
 2.77028	0.556927
 2.78028	0.556951
 2.79028	0.556975
 2.80028	0.556999
 2.81028	0.557
 2.82028	0.557
 2.83028	0.557001
 2.84028	0.557001
 2.85029	0.557002
 2.86029	0.557002
 2.87029	0.557003
 2.88029	0.557003
 2.89029	0.557004
 2.90029	0.557004
 2.91029	0.557005
 2.92029	0.557005
 2.93029	0.557006
 2.94029	0.557006
 2.9503	0.557007
 2.9603	0.557007
 2.9703	0.557008
 2.9803	0.557008
 2.9903	0.557009
 3.0003	0.55701
 3.0103	0.557035
 3.0203	0.55706
 3.0303	0.557086
 3.0403	0.557111
 3.05031	0.557136
 3.06031	0.557161
 3.07031	0.557187
 3.08031	0.557212
 3.09031	0.557237
 3.10031	0.557262
 3.11031	0.557287
 3.12031	0.557313
 3.13031	0.557338
 3.14031	0.557363
 3.15032	0.557388
 3.16032	0.557413
 3.17032	0.557439
 3.18032	0.557464
 3.19032	0.557489
 3.20032	0.557514
 3.21032	0.557539
 3.22032	0.557565
 3.23032	0.55759
 3.24032	0.557615
 3.25033	0.55764
 3.26033	0.557666
 3.27033	0.557691
 3.28033	0.557716
 3.29033	0.557741
 3.30033	0.557766
 3.31033	0.557792
 3.32033	0.557817
 3.33033	0.557842
 3.34033	0.557867
 3.35034	0.557892
 3.36034	0.557918
 3.37034	0.557943
 3.38034	0.557968
 3.39034	0.557993
 3.40034	0.558019
 3.41034	0.558044
 3.42034	0.558069
 3.43034	0.558094
 3.44034	0.558119
 3.45035	0.558145
 3.46035	0.55817
 3.47035	0.558195
 3.48035	0.55822
 3.49035	0.558245
 3.50035	0.55827
 3.51035	0.558277
 3.52035	0.558284
 3.53035	0.558291
 3.54035	0.558299
 3.55036	0.558306
 3.56036	0.558313
 3.57036	0.55832
 3.58036	0.558327
 3.59036	0.558334
 3.60036	0.558341
 3.61036	0.558348
 3.62036	0.558355
 3.63036	0.558363
 3.64036	0.55837
 3.65037	0.558377
 3.66037	0.558384
 3.67037	0.558391
 3.68037	0.558398
 3.69037	0.558405
 3.70037	0.558412
 3.71037	0.558419
 3.72037	0.558427
 3.73037	0.558434
 3.74037	0.558441
 3.75038	0.558448
 3.76038	0.558455
 3.77038	0.558462
 3.78038	0.558469
 3.79038	0.558476
 3.80038	0.558484
 3.81038	0.558491
 3.82038	0.558498
 3.83038	0.558505
 3.84038	0.558512
 3.85039	0.558519
 3.86039	0.558526
 3.87039	0.558533
 3.88039	0.55854
 3.89039	0.558548
 3.90039	0.558555
 3.91039	0.558562
 3.92039	0.558569
 3.93039	0.558576
 3.94039	0.558583
 3.9504	0.55859
 3.9604	0.558597
 3.9704	0.558605
 3.9804	0.558612
 3.9904	0.558619
 4.0004	0.558626
 4.0104	0.558632
 4.0204	0.558638
 4.0304	0.558645
 4.0404	0.558651
 4.05041	0.558657
 4.06041	0.558664
 4.07041	0.55867
 4.08041	0.558676
 4.09041	0.558683
 4.10041	0.558689
 4.11041	0.558695
 4.12041	0.558701
 4.13041	0.558708
 4.14041	0.558714
 4.15042	0.55872
 4.16042	0.558727
 4.17042	0.558733
 4.18042	0.558739
 4.19042	0.558746
 4.20042	0.558752
 4.21042	0.558758
 4.22042	0.558765
 4.23042	0.558771
 4.24042	0.558777
 4.25043	0.558783
 4.26043	0.55879
 4.27043	0.558796
 4.28043	0.558802
 4.29043	0.558809
 4.30043	0.558815
 4.31043	0.558821
 4.32043	0.558828
 4.33043	0.558834
 4.34043	0.55884
 4.35044	0.558846
 4.36044	0.558853
 4.37044	0.558859
 4.38044	0.558865
 4.39044	0.558872
 4.40044	0.558878
 4.41044	0.558884
 4.42044	0.558891
 4.43044	0.558897
 4.44044	0.558903
 4.45045	0.55891
 4.46045	0.558916
 4.47045	0.558922
 4.48045	0.558928
 4.49045	0.558935
 4.50045	0.558941
 4.51045	0.558938
 4.52045	0.558935
 4.53045	0.558933
 4.54045	0.55893
 4.55046	0.558927
 4.56046	0.558925
 4.57046	0.558922
 4.58046	0.558919
 4.59046	0.558917
 4.60046	0.558914
 4.61046	0.558912
 4.62046	0.558909
 4.63046	0.558906
 4.64046	0.558904
 4.65047	0.558901
 4.66047	0.558898
 4.67047	0.558896
 4.68047	0.558893
 4.69047	0.55889
 4.70047	0.558888
 4.71047	0.558885
 4.72047	0.558882
 4.73047	0.55888
 4.74047	0.558877
 4.75048	0.558875
 4.76048	0.558872
 4.77048	0.558869
 4.78048	0.558867
 4.79048	0.558864
 4.80048	0.558861
 4.81048	0.558859
 4.82048	0.558856
 4.83048	0.558853
 4.84048	0.558851
 4.85049	0.558848
 4.86049	0.558845
 4.87049	0.558843
 4.88049	0.55884
 4.89049	0.558838
 4.90049	0.558835
 4.91049	0.558832
 4.92049	0.55883
 4.93049	0.558827
 4.94049	0.558824
 4.9505	0.558822
 4.9605	0.558819
 4.9705	0.558816
 4.9805	0.558814
 4.9905	0.558811
 5.0005	0.558809
 5.0105	0.558811
 5.0205	0.558814
 5.0305	0.558816
 5.0405	0.558818
 5.05051	0.558821
 5.06051	0.558823
 5.07051	0.558826
 5.08051	0.558828
 5.09051	0.558831
 5.10051	0.558833
 5.11051	0.558836
 5.12051	0.558838
 5.13051	0.55884
 5.14051	0.558843
 5.15052	0.558845
 5.16052	0.558848
 5.17052	0.55885
 5.18052	0.558853
 5.19052	0.558855
 5.20052	0.558858
 5.21052	0.55886
 5.22052	0.558862
 5.23052	0.558865
 5.24052	0.558867
 5.25053	0.55887
 5.26053	0.558872
 5.27053	0.558875
 5.28053	0.558877
 5.29053	0.558879
 5.30053	0.558882
 5.31053	0.558884
 5.32053	0.558887
 5.33053	0.558889
 5.34053	0.558892
 5.35054	0.558894
 5.36054	0.558897
 5.37054	0.558899
 5.38054	0.558901
 5.39054	0.558904
 5.40054	0.558906
 5.41054	0.558909
 5.42054	0.558911
 5.43054	0.558914
 5.44054	0.558916
 5.45055	0.558919
 5.46055	0.558921
 5.47055	0.558923
 5.48055	0.558926
 5.49055	0.558928
 5.50055	0.558931
 5.51055	0.558929
 5.52055	0.558927
 5.53055	0.558926
 5.54055	0.558924
 5.55056	0.558922
 5.56056	0.558921
 5.57056	0.558919
 5.58056	0.558917
 5.59056	0.558916
 5.60056	0.558914
 5.61056	0.558913
 5.62056	0.558911
 5.63056	0.558909
 5.64056	0.558908
 5.65057	0.558906
 5.66057	0.558904
 5.67057	0.558903
 5.68057	0.558901
 5.69057	0.5589
 5.70057	0.558898
 5.71057	0.558896
 5.72057	0.558895
 5.73057	0.558893
 5.74057	0.558891
 5.75058	0.55889
 5.76058	0.558888
 5.77058	0.558887
 5.78058	0.558885
 5.79058	0.558883
 5.80058	0.558882
 5.81058	0.55888
 5.82058	0.558878
 5.83058	0.558877
 5.84058	0.558875
 5.85059	0.558874
 5.86059	0.558872
 5.87059	0.55887
 5.88059	0.558869
 5.89059	0.558867
 5.90059	0.558865
 5.91059	0.558864
 5.92059	0.558862
 5.93059	0.558861
 5.94059	0.558859
 5.9506	0.558857
 5.9606	0.558856
 5.9706	0.558854
 5.9806	0.558852
 5.9906	0.558851
 6.0006	0.55885
 6.0106	0.558855
 6.0206	0.55886
 6.0306	0.558866
 6.0406	0.558871
 6.05061	0.558877
 6.06061	0.558882
 6.07061	0.558887
 6.08061	0.558893
 6.09061	0.558898
 6.10061	0.558903
 6.11061	0.558909
 6.12061	0.558914
 6.13061	0.55892
 6.14061	0.558925
 6.15062	0.55893
 6.16062	0.558936
 6.17062	0.558941
 6.18062	0.558947
 6.19062	0.558952
 6.20062	0.558957
 6.21062	0.558963
 6.22062	0.558968
 6.23062	0.558973
 6.24062	0.558979
 6.25063	0.558984
 6.26063	0.55899
 6.27063	0.558995
 6.28063	0.559
 6.29063	0.559006
 6.30063	0.559011
 6.31063	0.559017
 6.32063	0.559022
 6.33063	0.559027
 6.34063	0.559033
 6.35064	0.559038
 6.36064	0.559044
 6.37064	0.559049
 6.38064	0.559054
 6.39064	0.55906
 6.40064	0.559065
 6.41064	0.55907
 6.42064	0.559076
 6.43064	0.559081
 6.44064	0.559087
 6.45065	0.559092
 6.46065	0.559097
 6.47065	0.559103
 6.48065	0.559108
 6.49065	0.559114
 6.50065	0.559119
 6.51065	0.559124
 6.52065	0.55913
 6.53065	0.559135
 6.54065	0.559141
 6.55066	0.559146
 6.56066	0.559151
 6.57066	0.559157
 6.58066	0.559162
 6.59066	0.559167
 6.60066	0.559173
 6.61066	0.559178
 6.62066	0.559184
 6.63066	0.559189
 6.64066	0.559194
 6.65067	0.5592
 6.66067	0.559205
 6.67067	0.559211
 6.68067	0.559216
 6.69067	0.559221
 6.70067	0.559227
 6.71067	0.559232
 6.72067	0.559238
 6.73067	0.559243
 6.74067	0.559248
 6.75068	0.559254
 6.76068	0.559259
 6.77068	0.559264
 6.78068	0.55927
 6.79068	0.559275
 6.80068	0.559281
 6.81068	0.559286
 6.82068	0.559291
 6.83068	0.559297
 6.84068	0.559302
 6.85069	0.559308
 6.86069	0.559313
 6.87069	0.559318
 6.88069	0.559324
 6.89069	0.559329
 6.90069	0.559335
 6.91069	0.55934
 6.92069	0.559345
 6.93069	0.559351
 6.94069	0.559356
 6.9507	0.559361
 6.9607	0.559367
 6.9707	0.559372
 6.9807	0.559378
 6.9907	0.559383
 7.0007	0.559388
 7.0107	0.559386
 7.0207	0.559384
 7.0307	0.559382
 7.0407	0.55938
 7.05071	0.559378
 7.06071	0.559376
 7.07071	0.559374
 7.08071	0.559372
 7.09071	0.55937
 7.10071	0.559368
 7.11071	0.559366
 7.12071	0.559363
 7.13071	0.559361
 7.14071	0.559359
 7.15072	0.559357
 7.16072	0.559355
 7.17072	0.559353
 7.18072	0.559351
 7.19072	0.559349
 7.20072	0.559347
 7.21072	0.559345
 7.22072	0.559343
 7.23072	0.559341
 7.24072	0.559339
 7.25073	0.559337
 7.26073	0.559335
 7.27073	0.559333
 7.28073	0.559331
 7.29073	0.559329
 7.30073	0.559327
 7.31073	0.559325
 7.32073	0.559323
 7.33073	0.559321
 7.34073	0.559319
 7.35074	0.559317
 7.36074	0.559315
 7.37074	0.559313
 7.38074	0.559311
 7.39074	0.559309
 7.40074	0.559307
 7.41074	0.559305
 7.42074	0.559302
 7.43074	0.5593
 7.44074	0.559298
 7.45075	0.559296
 7.46075	0.559294
 7.47075	0.559292
 7.48075	0.55929
 7.49075	0.559288
 7.50075	0.559286
 7.51075	0.559284
 7.52075	0.559282
 7.53075	0.55928
 7.54075	0.559278
 7.55076	0.559276
 7.56076	0.559274
 7.57076	0.559272
 7.58076	0.55927
 7.59076	0.559268
 7.60076	0.559266
 7.61076	0.559264
 7.62076	0.559262
 7.63076	0.55926
 7.64076	0.559258
 7.65077	0.559256
 7.66077	0.559254
 7.67077	0.559252
 7.68077	0.55925
 7.69077	0.559248
 7.70077	0.559246
 7.71077	0.559244
 7.72077	0.559241
 7.73077	0.559239
 7.74077	0.559237
 7.75078	0.559235
 7.76078	0.559233
 7.77078	0.559231
 7.78078	0.559229
 7.79078	0.559227
 7.80078	0.559225
 7.81078	0.559223
 7.82078	0.559221
 7.83078	0.559219
 7.84078	0.559217
 7.85079	0.559215
 7.86079	0.559213
 7.87079	0.559211
 7.88079	0.559209
 7.89079	0.559207
 7.90079	0.559205
 7.91079	0.559203
 7.92079	0.559201
 7.93079	0.559199
 7.94079	0.559197
 7.9508	0.559195
 7.9608	0.559193
 7.9708	0.559191
 7.9808	0.559189
 7.9908	0.559187
 8.0008	0.559185
 8.0108	0.559194
 8.0208	0.559203
 8.0308	0.559212
 8.0408	0.55922
 8.05081	0.559229
 8.06081	0.559238
 8.07081	0.559247
 8.08081	0.559255
 8.09081	0.559264
 8.10081	0.559273
 8.11081	0.559282
 8.12081	0.55929
 8.13081	0.559299
 8.14081	0.559308
 8.15082	0.559317
 8.16082	0.559325
 8.17082	0.559334
 8.18082	0.559343
 8.19082	0.559352
 8.20082	0.55936
 8.21082	0.559369
 8.22082	0.559378
 8.23082	0.559387
 8.24082	0.559395
 8.25083	0.559404
 8.26083	0.559413
 8.27083	0.559421
 8.28083	0.55943
 8.29083	0.559439
 8.30083	0.559448
 8.31083	0.559456
 8.32083	0.559465
 8.33083	0.559474
 8.34083	0.559483
 8.35084	0.559491
 8.36084	0.5595
 8.37084	0.559509
 8.38084	0.559518
 8.39084	0.559526
 8.40084	0.559535
 8.41084	0.559544
 8.42084	0.559553
 8.43084	0.559561
 8.44084	0.55957
 8.45085	0.559579
 8.46085	0.559588
 8.47085	0.559596
 8.48085	0.559605
 8.49085	0.559614
 8.50085	0.559623
 8.51085	0.559631
 8.52085	0.55964
 8.53085	0.559649
 8.54085	0.559658
 8.55086	0.559666
 8.56086	0.559675
 8.57086	0.559684
 8.58086	0.559693
 8.59086	0.559701
 8.60086	0.55971
 8.61086	0.559719
 8.62086	0.559728
 8.63086	0.559736
 8.64086	0.559745
 8.65087	0.559754
 8.66087	0.559762
 8.67087	0.559771
 8.68087	0.55978
 8.69087	0.559789
 8.70087	0.559797
 8.71087	0.559806
 8.72087	0.559815
 8.73087	0.559824
 8.74087	0.559832
 8.75088	0.559841
 8.76088	0.55985
 8.77088	0.559859
 8.78088	0.559867
 8.79088	0.559876
 8.80088	0.559885
 8.81088	0.559894
 8.82088	0.559902
 8.83088	0.559911
 8.84088	0.55992
 8.85089	0.559929
 8.86089	0.559937
 8.87089	0.559946
 8.88089	0.559955
 8.89089	0.559964
 8.90089	0.559972
 8.91089	0.559981
 8.92089	0.55999
 8.93089	0.559999
 8.94089	0.560007
 8.9509	0.560016
 8.9609	0.560025
 8.9709	0.560034
 8.9809	0.560042
 8.9909	0.560051
 9.0009	0.560058
 9.0109	0.560052
 9.0209	0.560045
 9.0309	0.560038
 9.0409	0.560031
 9.05091	0.560024
 9.06091	0.560017
 9.07091	0.560011
 9.08091	0.560004
 9.09091	0.559997
 9.10091	0.55999
 9.11091	0.559983
 9.12091	0.559977
 9.13091	0.55997
 9.14091	0.559963
 9.15092	0.559956
 9.16092	0.559949
 9.17092	0.559943
 9.18092	0.559936
 9.19092	0.559929
 9.20092	0.559922
 9.21092	0.559915
 9.22092	0.559909
 9.23092	0.559902
 9.24092	0.559895
 9.25093	0.559888
 9.26093	0.559881
 9.27093	0.559874
 9.28093	0.559868
 9.29093	0.559861
 9.30093	0.559854
 9.31093	0.559847
 9.32093	0.55984
 9.33093	0.559834
 9.34093	0.559827
 9.35094	0.55982
 9.36094	0.559813
 9.37094	0.559806
 9.38094	0.5598
 9.39094	0.559793
 9.40094	0.559786
 9.41094	0.559779
 9.42094	0.559772
 9.43094	0.559765
 9.44094	0.559759
 9.45095	0.559752
 9.46095	0.559745
 9.47095	0.559738
 9.48095	0.559731
 9.49095	0.559725
 9.50095	0.559718
 9.51095	0.559711
 9.52095	0.559704
 9.53095	0.559697
 9.54095	0.559691
 9.55096	0.559684
 9.56096	0.559677
 9.57096	0.55967
 9.58096	0.559663
 9.59096	0.559656
 9.60096	0.55965
 9.61096	0.559643
 9.62096	0.559636
 9.63096	0.559629
 9.64096	0.559622
 9.65097	0.559616
 9.66097	0.559609
 9.67097	0.559602
 9.68097	0.559595
 9.69097	0.559588
 9.70097	0.559582
 9.71097	0.559575
 9.72097	0.559568
 9.73097	0.559561
 9.74097	0.559554
 9.75098	0.559547
 9.76098	0.559541
 9.77098	0.559534
 9.78098	0.559527
 9.79098	0.55952
 9.80098	0.559513
 9.81098	0.559507
 9.82098	0.5595
 9.83098	0.559493
 9.84098	0.559486
 9.85099	0.559479
 9.86099	0.559473
 9.87099	0.559466
 9.88099	0.559459
 9.89099	0.559452
 9.90099	0.559445
 9.91099	0.559438
 9.92099	0.559432
 9.93099	0.559425
 9.94099	0.559418
 9.951	0.559411
 9.961	0.559404
 9.971	0.559398
 9.981	0.559391
 9.991	0.559384
 10.001	0.559379
 10.011	0.55939
 10.021	0.5594
 10.031	0.559411
 10.041	0.559422
 10.051	0.559433
 10.061	0.559444
 10.071	0.559454
 10.081	0.559465
 10.091	0.559476
 10.101	0.559487
 10.111	0.559497
 10.121	0.559508
 10.131	0.559519
 10.141	0.55953
 10.151	0.559541
 10.161	0.559551
 10.171	0.559562
 10.181	0.559573
 10.191	0.559584
 10.201	0.559594
 10.211	0.559605
 10.221	0.559616
 10.231	0.559627
 10.241	0.559638
 10.251	0.559648
 10.261	0.559659
 10.271	0.55967
 10.281	0.559681
 10.291	0.559691
 10.301	0.559702
 10.311	0.559713
 10.321	0.559724
 10.331	0.559735
 10.341	0.559745
 10.351	0.559756
 10.361	0.559767
 10.371	0.559778
 10.381	0.559788
 10.391	0.559799
 10.401	0.55981
 10.411	0.559821
 10.421	0.559832
 10.431	0.559842
 10.441	0.559853
 10.451	0.559864
 10.461	0.559875
 10.471	0.559885
 10.481	0.559896
 10.491	0.559907
 10.5011	0.559918
 10.5111	0.559929
 10.5211	0.559939
 10.5311	0.55995
 10.5411	0.559961
 10.5511	0.559972
 10.5611	0.559982
 10.5711	0.559993
 10.5811	0.560004
 10.5911	0.560015
 10.6011	0.560026
 10.6111	0.560036
 10.6211	0.560047
 10.6311	0.560058
 10.6411	0.560069
 10.6511	0.560079
 10.6611	0.56009
 10.6711	0.560101
 10.6811	0.560112
 10.6911	0.560123
 10.7011	0.560133
 10.7111	0.560144
 10.7211	0.560155
 10.7311	0.560166
 10.7411	0.560176
 10.7511	0.560187
 10.7611	0.560198
 10.7711	0.560209
 10.7811	0.56022
 10.7911	0.56023
 10.8011	0.560241
 10.8111	0.560252
 10.8211	0.560263
 10.8311	0.560273
 10.8411	0.560284
 10.8511	0.560295
 10.8611	0.560306
 10.8711	0.560317
 10.8811	0.560327
 10.8911	0.560338
 10.9011	0.560349
 10.9111	0.56036
 10.9211	0.56037
 10.9311	0.560381
 10.9411	0.560392
 10.9511	0.560403
 10.9611	0.560413
 10.9711	0.560424
 10.9811	0.560435
 10.9911	0.560446
 11.0011	0.560455
 11.0111	0.560453
 11.0211	0.560452
 11.0311	0.56045
 11.0411	0.560448
 11.0511	0.560447
 11.0611	0.560445
 11.0711	0.560443
 11.0811	0.560441
 11.0911	0.56044
 11.1011	0.560438
 11.1111	0.560436
 11.1211	0.560434
 11.1311	0.560433
 11.1411	0.560431
 11.1511	0.560429
 11.1611	0.560428
 11.1711	0.560426
 11.1811	0.560424
 11.1911	0.560422
 11.2011	0.560421
 11.2111	0.560419
 11.2211	0.560417
 11.2311	0.560415
 11.2411	0.560414
 11.2511	0.560412
 11.2611	0.56041
 11.2711	0.560409
 11.2811	0.560407
 11.2911	0.560405
 11.3011	0.560403
 11.3111	0.560402
 11.3211	0.5604
 11.3311	0.560398
 11.3411	0.560396
 11.3511	0.560395
 11.3611	0.560393
 11.3711	0.560391
 11.3811	0.56039
 11.3911	0.560388
 11.4011	0.560386
 11.4111	0.560384
 11.4211	0.560383
 11.4311	0.560381
 11.4411	0.560379
 11.4511	0.560377
 11.4611	0.560376
 11.4711	0.560374
 11.4811	0.560372
 11.4911	0.560371
 11.5012	0.560369
 11.5112	0.560367
 11.5212	0.560365
 11.5312	0.560364
 11.5412	0.560362
 11.5512	0.56036
 11.5612	0.560358
 11.5712	0.560357
 11.5812	0.560355
 11.5912	0.560353
 11.6012	0.560352
 11.6112	0.56035
 11.6212	0.560348
 11.6312	0.560346
 11.6412	0.560345
 11.6512	0.560343
 11.6612	0.560341
 11.6712	0.560339
 11.6812	0.560338
 11.6912	0.560336
 11.7012	0.560334
 11.7112	0.560333
 11.7212	0.560331
 11.7312	0.560329
 11.7412	0.560327
 11.7512	0.560326
 11.7612	0.560324
 11.7712	0.560322
 11.7812	0.56032
 11.7912	0.560319
 11.8012	0.560317
 11.8112	0.560315
 11.8212	0.560314
 11.8312	0.560312
 11.8412	0.56031
 11.8512	0.560308
 11.8612	0.560307
 11.8712	0.560305
 11.8812	0.560303
 11.8912	0.560301
 11.9012	0.5603
 11.9112	0.560298
 11.9212	0.560296
 11.9312	0.560295
 11.9412	0.560293
 11.9512	0.560291
 11.9612	0.560289
 11.9712	0.560288
 11.9812	0.560286
 11.9912	0.560284
 12.0012	0.560282
 12.0112	0.560277
 12.0212	0.560273
 12.0312	0.560268
 12.0412	0.560264
 12.0512	0.560259
 12.0612	0.560255
 12.0712	0.56025
 12.0812	0.560245
 12.0912	0.560241
 12.1012	0.560236
 12.1112	0.560232
 12.1212	0.560227
 12.1312	0.560223
 12.1412	0.560218
 12.1512	0.560213
 12.1612	0.560209
 12.1712	0.560204
 12.1812	0.5602
 12.1912	0.560195
 12.2012	0.560191
 12.2112	0.560186
 12.2212	0.560181
 12.2312	0.560177
 12.2412	0.560172
 12.2512	0.560168
 12.2612	0.560163
 12.2712	0.560159
 12.2812	0.560154
 12.2912	0.560149
 12.3012	0.560145
 12.3112	0.56014
 12.3212	0.560136
 12.3312	0.560131
 12.3412	0.560127
 12.3512	0.560122
 12.3612	0.560117
 12.3712	0.560113
 12.3812	0.560108
 12.3912	0.560104
 12.4012	0.560099
 12.4112	0.560094
 12.4212	0.56009
 12.4312	0.560085
 12.4412	0.560081
 12.4512	0.560076
 12.4612	0.560072
 12.4712	0.560067
 12.4812	0.560062
 12.4912	0.560058
 12.5013	0.560053
 12.5113	0.560049
 12.5213	0.560044
 12.5313	0.56004
 12.5413	0.560035
 12.5513	0.56003
 12.5613	0.560026
 12.5713	0.560021
 12.5813	0.560017
 12.5913	0.560012
 12.6013	0.560008
 12.6113	0.560003
 12.6213	0.559998
 12.6313	0.559994
 12.6413	0.559989
 12.6513	0.559985
 12.6613	0.55998
 12.6713	0.559976
 12.6813	0.559971
 12.6913	0.559966
 12.7013	0.559962
 12.7113	0.559957
 12.7213	0.559953
 12.7313	0.559948
 12.7413	0.559943
 12.7513	0.559939
 12.7613	0.559934
 12.7713	0.55993
 12.7813	0.559925
 12.7913	0.559921
 12.8013	0.559916
 12.8113	0.559911
 12.8213	0.559907
 12.8313	0.559902
 12.8413	0.559898
 12.8513	0.559893
 12.8613	0.559889
 12.8713	0.559884
 12.8813	0.559879
 12.8913	0.559875
 12.9013	0.55987
 12.9113	0.559866
 12.9213	0.559861
 12.9313	0.559857
 12.9413	0.559852
 12.9513	0.559847
 12.9613	0.559843
 12.9713	0.559838
 12.9813	0.559834
 12.9913	0.559829
 13.0013	0.559827
 13.0113	0.559842
 13.0213	0.559857
 13.0313	0.559871
 13.0413	0.559886
 13.0513	0.559901
 13.0613	0.559916
 13.0713	0.55993
 13.0813	0.559945
 13.0913	0.55996
 13.1013	0.559974
 13.1113	0.559989
 13.1213	0.560004
 13.1313	0.560019
 13.1413	0.560033
 13.1513	0.560048
 13.1613	0.560063
 13.1713	0.560078
 13.1813	0.560092
 13.1913	0.560107
 13.2013	0.560122
 13.2113	0.560137
 13.2213	0.560151
 13.2313	0.560166
 13.2413	0.560181
 13.2513	0.560196
 13.2613	0.56021
 13.2713	0.560225
 13.2813	0.56024
 13.2913	0.560255
 13.3013	0.560269
 13.3113	0.560284
 13.3213	0.560299
 13.3313	0.560314
 13.3413	0.560328
 13.3513	0.560343
 13.3613	0.560358
 13.3713	0.560373
 13.3813	0.560387
 13.3913	0.560402
 13.4013	0.560417
 13.4113	0.560431
 13.4213	0.560446
 13.4313	0.560461
 13.4413	0.560476
 13.4513	0.56049
 13.4613	0.560505
 13.4713	0.56052
 13.4813	0.560535
 13.4913	0.560549
 13.5014	0.560564
 13.5114	0.560579
 13.5214	0.560594
 13.5314	0.560608
 13.5414	0.560623
 13.5514	0.560638
 13.5614	0.560653
 13.5714	0.560667
 13.5814	0.560682
 13.5914	0.560697
 13.6014	0.560712
 13.6114	0.560726
 13.6214	0.560741
 13.6314	0.560756
 13.6414	0.560771
 13.6514	0.560785
 13.6614	0.5608
 13.6714	0.560815
 13.6814	0.56083
 13.6914	0.560844
 13.7014	0.560859
 13.7114	0.560874
 13.7214	0.560888
 13.7314	0.560903
 13.7414	0.560918
 13.7514	0.560933
 13.7614	0.560947
 13.7714	0.560962
 13.7814	0.560977
 13.7914	0.560992
 13.8014	0.561006
 13.8114	0.561021
 13.8214	0.561036
 13.8314	0.561051
 13.8414	0.561065
 13.8514	0.56108
 13.8614	0.561095
 13.8714	0.56111
 13.8814	0.561124
 13.8914	0.561139
 13.9014	0.561154
 13.9114	0.561169
 13.9214	0.561183
 13.9314	0.561198
 13.9414	0.561213
 13.9514	0.561228
 13.9614	0.561242
 13.9714	0.561257
 13.9814	0.561272
 13.9914	0.561287
 14.0014	0.561298
 14.0114	0.561288
 14.0214	0.561278
 14.0314	0.561268
 14.0414	0.561258
 14.0514	0.561248
 14.0614	0.561238
 14.0714	0.561228
 14.0814	0.561218
 14.0914	0.561208
 14.1014	0.561198
 14.1114	0.561188
 14.1214	0.561178
 14.1314	0.561168
 14.1414	0.561158
 14.1514	0.561148
 14.1614	0.561138
 14.1714	0.561128
 14.1814	0.561118
 14.1914	0.561108
 14.2014	0.561099
 14.2114	0.561089
 14.2214	0.561079
 14.2314	0.561069
 14.2414	0.561059
 14.2514	0.561049
 14.2614	0.561039
 14.2714	0.561029
 14.2814	0.561019
 14.2914	0.561009
 14.3014	0.560999
 14.3114	0.560989
 14.3214	0.560979
 14.3314	0.560969
 14.3414	0.560959
 14.3514	0.560949
 14.3614	0.560939
 14.3714	0.560929
 14.3814	0.560919
 14.3914	0.560909
 14.4014	0.560899
 14.4114	0.560889
 14.4214	0.560879
 14.4314	0.560869
 14.4414	0.560859
 14.4514	0.560849
 14.4614	0.560839
 14.4714	0.56083
 14.4814	0.56082
 14.4914	0.56081
 14.5015	0.5608
 14.5115	0.56079
 14.5215	0.56078
 14.5315	0.56077
 14.5415	0.56076
 14.5515	0.56075
 14.5615	0.56074
 14.5715	0.56073
 14.5815	0.56072
 14.5915	0.56071
 14.6015	0.5607
 14.6115	0.56069
 14.6215	0.56068
 14.6315	0.56067
 14.6415	0.56066
 14.6515	0.56065
 14.6615	0.56064
 14.6715	0.56063
 14.6815	0.56062
 14.6915	0.56061
 14.7015	0.5606
 14.7115	0.56059
 14.7215	0.56058
 14.7315	0.56057
 14.7415	0.56056
 14.7515	0.560551
 14.7615	0.560541
 14.7715	0.560531
 14.7815	0.560521
 14.7915	0.560511
 14.8015	0.560501
 14.8115	0.560491
 14.8215	0.560481
 14.8315	0.560471
 14.8415	0.560461
 14.8515	0.560451
 14.8615	0.560441
 14.8715	0.560431
 14.8815	0.560421
 14.8915	0.560411
 14.9015	0.560401
 14.9115	0.560391
 14.9215	0.560381
 14.9315	0.560371
 14.9415	0.560361
 14.9515	0.560351
 14.9615	0.560341
 14.9715	0.560331
 14.9815	0.560321
 14.9915	0.560311
 15.0015	0.5603
 15.0115	0.560283
 15.0215	0.560266
 15.0315	0.560249
 15.0415	0.560232
 15.0515	0.560215
 15.0615	0.560198
 15.0715	0.560181
 15.0815	0.560164
 15.0915	0.560147
 15.1015	0.56013
 15.1115	0.560112
 15.1215	0.560095
 15.1315	0.560078
 15.1415	0.560061
 15.1515	0.560044
 15.1615	0.560027
 15.1715	0.56001
 15.1815	0.559993
 15.1915	0.559976
 15.2015	0.559959
 15.2115	0.559942
 15.2215	0.559925
 15.2315	0.559908
 15.2415	0.55989
 15.2515	0.559873
 15.2615	0.559856
 15.2715	0.559839
 15.2815	0.559822
 15.2915	0.559805
 15.3015	0.559788
 15.3115	0.559771
 15.3215	0.559754
 15.3315	0.559737
 15.3415	0.55972
 15.3515	0.559703
 15.3615	0.559685
 15.3715	0.559668
 15.3815	0.559651
 15.3915	0.559634
 15.4015	0.559617
 15.4115	0.5596
 15.4215	0.559583
 15.4315	0.559566
 15.4415	0.559549
 15.4515	0.559532
 15.4615	0.559515
 15.4715	0.559498
 15.4815	0.559481
 15.4915	0.559463
 15.5016	0.559446
 15.5116	0.559429
 15.5216	0.559412
 15.5316	0.559395
 15.5416	0.559378
 15.5516	0.559361
 15.5616	0.559344
 15.5716	0.559327
 15.5816	0.55931
 15.5916	0.559293
 15.6016	0.559276
 15.6116	0.559258
 15.6216	0.559241
 15.6316	0.559224
 15.6416	0.559207
 15.6516	0.55919
 15.6616	0.559173
 15.6716	0.559156
 15.6816	0.559139
 15.6916	0.559122
 15.7016	0.559105
 15.7116	0.559088
 15.7216	0.559071
 15.7316	0.559054
 15.7416	0.559036
 15.7516	0.559019
 15.7616	0.559002
 15.7716	0.558985
 15.7816	0.558968
 15.7916	0.558951
 15.8016	0.558934
 15.8116	0.558917
 15.8216	0.5589
 15.8316	0.558883
 15.8416	0.558866
 15.8516	0.558849
 15.8616	0.558831
 15.8716	0.558814
 15.8816	0.558797
 15.8916	0.55878
 15.9016	0.558763
 15.9116	0.558746
 15.9216	0.558729
 15.9316	0.558712
 15.9416	0.558695
 15.9516	0.558678
 15.9616	0.558661
 15.9716	0.558644
 15.9816	0.558627
 15.9916	0.558609
 16.0016	0.558592
 16.0116	0.558572
 16.0216	0.558552
 16.0316	0.558533
 16.0416	0.558513
 16.0516	0.558493
 16.0616	0.558474
 16.0716	0.558454
 16.0816	0.558434
 16.0916	0.558414
 16.1016	0.558395
 16.1116	0.558375
 16.1216	0.558355
 16.1316	0.558336
 16.1416	0.558316
 16.1516	0.558296
 16.1616	0.558276
 16.1716	0.558257
 16.1816	0.558237
 16.1916	0.558217
 16.2016	0.558197
 16.2116	0.558178
 16.2216	0.558158
 16.2316	0.558138
 16.2416	0.558119
 16.2516	0.558099
 16.2616	0.558079
 16.2716	0.558059
 16.2816	0.55804
 16.2916	0.55802
 16.3016	0.558
 16.3116	0.557981
 16.3216	0.557961
 16.3316	0.557941
 16.3416	0.557921
 16.3516	0.557902
 16.3616	0.557882
 16.3716	0.557862
 16.3816	0.557842
 16.3916	0.557823
 16.4016	0.557803
 16.4116	0.557783
 16.4216	0.557764
 16.4316	0.557744
 16.4416	0.557724
 16.4516	0.557704
 16.4616	0.557685
 16.4716	0.557665
 16.4816	0.557645
 16.4916	0.557625
 16.5017	0.557606
 16.5117	0.557586
 16.5217	0.557566
 16.5317	0.557547
 16.5417	0.557527
 16.5517	0.557507
 16.5617	0.557487
 16.5717	0.557468
 16.5817	0.557448
 16.5917	0.557428
 16.6017	0.557409
 16.6117	0.557389
 16.6217	0.557369
 16.6317	0.557349
 16.6417	0.55733
 16.6517	0.55731
 16.6617	0.55729
 16.6717	0.55727
 16.6817	0.557251
 16.6917	0.557231
 16.7017	0.557211
 16.7117	0.557192
 16.7217	0.557172
 16.7317	0.557152
 16.7417	0.557132
 16.7517	0.557113
 16.7617	0.557093
 16.7717	0.557073
 16.7817	0.557053
 16.7917	0.557034
 16.8017	0.557014
 16.8117	0.556994
 16.8217	0.556975
 16.8317	0.556955
 16.8417	0.556935
 16.8517	0.556915
 16.8617	0.556896
 16.8717	0.556876
 16.8817	0.556856
 16.8917	0.556837
 16.9017	0.556817
 16.9117	0.556797
 16.9217	0.556777
 16.9317	0.556758
 16.9417	0.556738
 16.9517	0.556718
 16.9617	0.556698
 16.9717	0.556679
 16.9817	0.556659
 16.9917	0.556639
 17.0017	0.556626
 17.0117	0.556645
 17.0217	0.556665
 17.0317	0.556684
 17.0417	0.556703
 17.0517	0.556722
 17.0617	0.556741
 17.0717	0.556761
 17.0817	0.55678
 17.0917	0.556799
 17.1017	0.556818
 17.1117	0.556838
 17.1217	0.556857
 17.1317	0.556876
 17.1417	0.556895
 17.1517	0.556914
 17.1617	0.556934
 17.1717	0.556953
 17.1817	0.556972
 17.1917	0.556991
 17.2017	0.557011
 17.2117	0.55703
 17.2217	0.557049
 17.2317	0.557068
 17.2417	0.557087
 17.2517	0.557107
 17.2617	0.557126
 17.2717	0.557145
 17.2817	0.557164
 17.2917	0.557183
 17.3017	0.557203
 17.3117	0.557222
 17.3217	0.557241
 17.3317	0.55726
 17.3417	0.55728
 17.3517	0.557299
 17.3617	0.557318
 17.3717	0.557337
 17.3817	0.557356
 17.3917	0.557376
 17.4017	0.557395
 17.4117	0.557414
 17.4217	0.557433
 17.4317	0.557452
 17.4417	0.557472
 17.4517	0.557491
 17.4617	0.55751
 17.4717	0.557529
 17.4817	0.557549
 17.4917	0.557568
 17.5018	0.557587
 17.5118	0.557606
 17.5218	0.557625
 17.5318	0.557645
 17.5418	0.557664
 17.5518	0.557683
 17.5618	0.557702
 17.5718	0.557721
 17.5818	0.557741
 17.5918	0.55776
 17.6018	0.557779
 17.6118	0.557798
 17.6218	0.557818
 17.6318	0.557837
 17.6418	0.557856
 17.6518	0.557875
 17.6618	0.557894
 17.6718	0.557914
 17.6818	0.557933
 17.6918	0.557952
 17.7018	0.557971
 17.7118	0.55799
 17.7218	0.55801
 17.7318	0.558029
 17.7418	0.558048
 17.7518	0.558067
 17.7618	0.558087
 17.7718	0.558106
 17.7818	0.558125
 17.7918	0.558144
 17.8018	0.558163
 17.8118	0.558183
 17.8218	0.558202
 17.8318	0.558221
 17.8418	0.55824
 17.8518	0.558259
 17.8618	0.558279
 17.8718	0.558298
 17.8818	0.558317
 17.8918	0.558336
 17.9018	0.558356
 17.9118	0.558375
 17.9218	0.558394
 17.9318	0.558413
 17.9418	0.558432
 17.9518	0.558452
 17.9618	0.558471
 17.9718	0.55849
 17.9818	0.558509
 17.9918	0.558528
 18.0018	0.558546
 18.0118	0.558554
 18.0218	0.558562
 18.0318	0.558571
 18.0418	0.558579
 18.0518	0.558587
 18.0618	0.558596
 18.0718	0.558604
 18.0818	0.558612
 18.0918	0.558621
 18.1018	0.558629
 18.1118	0.558637
 18.1218	0.558646
 18.1318	0.558654
 18.1418	0.558662
 18.1518	0.558671
 18.1618	0.558679
 18.1718	0.558687
 18.1818	0.558696
 18.1918	0.558704
 18.2018	0.558712
 18.2118	0.558721
 18.2218	0.558729
 18.2318	0.558738
 18.2418	0.558746
 18.2518	0.558754
 18.2618	0.558763
 18.2718	0.558771
 18.2818	0.558779
 18.2918	0.558788
 18.3018	0.558796
 18.3118	0.558804
 18.3218	0.558813
 18.3318	0.558821
 18.3418	0.558829
 18.3518	0.558838
 18.3618	0.558846
 18.3718	0.558854
 18.3818	0.558863
 18.3918	0.558871
 18.4018	0.558879
 18.4118	0.558888
 18.4218	0.558896
 18.4318	0.558904
 18.4418	0.558913
 18.4518	0.558921
 18.4618	0.558929
 18.4718	0.558938
 18.4818	0.558946
 18.4918	0.558954
 18.5019	0.558963
 18.5119	0.558971
 18.5219	0.558979
 18.5319	0.558988
 18.5419	0.558996
 18.5519	0.559004
 18.5619	0.559013
 18.5719	0.559021
 18.5819	0.559029
 18.5919	0.559038
 18.6019	0.559046
 18.6119	0.559054
 18.6219	0.559063
 18.6319	0.559071
 18.6419	0.559079
 18.6519	0.559088
 18.6619	0.559096
 18.6719	0.559104
 18.6819	0.559113
 18.6919	0.559121
 18.7019	0.559129
 18.7119	0.559138
 18.7219	0.559146
 18.7319	0.559154
 18.7419	0.559163
 18.7519	0.559171
 18.7619	0.559179
 18.7719	0.559188
 18.7819	0.559196
 18.7919	0.559204
 18.8019	0.559213
 18.8119	0.559221
 18.8219	0.559229
 18.8319	0.559238
 18.8419	0.559246
 18.8519	0.559254
 18.8619	0.559263
 18.8719	0.559271
 18.8819	0.559279
 18.8919	0.559288
 18.9019	0.559296
 18.9119	0.559304
 18.9219	0.559313
 18.9319	0.559321
 18.9419	0.559329
 18.9519	0.559338
 18.9619	0.559346
 18.9719	0.559354
 18.9819	0.559363
 18.9919	0.559371
 19.0019	0.559371
 19.0119	0.559338
 19.0219	0.559304
 19.0319	0.55927
 19.0419	0.559236
 19.0519	0.559202
 19.0619	0.559168
 19.0719	0.559134
 19.0819	0.559101
 19.0919	0.559067
 19.1019	0.559033
 19.1119	0.558999
 19.1219	0.558965
 19.1319	0.558931
 19.1419	0.558897
 19.1519	0.558864
 19.1619	0.55883
 19.1719	0.558796
 19.1819	0.558762
 19.1919	0.558728
 19.2019	0.558694
 19.2119	0.55866
 19.2219	0.558627
 19.2319	0.558593
 19.2419	0.558559
 19.2519	0.558525
 19.2619	0.558491
 19.2719	0.558457
 19.2819	0.558423
 19.2919	0.55839
 19.3019	0.558356
 19.3119	0.558322
 19.3219	0.558288
 19.3319	0.558254
 19.3419	0.55822
 19.3519	0.558187
 19.3619	0.558153
 19.3719	0.558119
 19.3819	0.558085
 19.3919	0.558051
 19.4019	0.558017
 19.4119	0.557983
 19.4219	0.55795
 19.4319	0.557916
 19.4419	0.557882
 19.4519	0.557848
 19.4619	0.557814
 19.4719	0.55778
 19.4819	0.557746
 19.4919	0.557713
 19.502	0.557679
 19.512	0.557645
 19.522	0.557611
 19.532	0.557577
 19.542	0.557543
 19.552	0.557509
 19.562	0.557476
 19.572	0.557442
 19.582	0.557408
 19.592	0.557374
 19.602	0.55734
 19.612	0.557306
 19.622	0.557272
 19.632	0.557239
 19.642	0.557205
 19.652	0.557171
 19.662	0.557137
 19.672	0.557103
 19.682	0.557069
 19.692	0.557035
 19.702	0.557002
 19.712	0.556968
 19.722	0.556934
 19.732	0.5569
 19.742	0.556866
 19.752	0.556832
 19.762	0.556798
 19.772	0.556765
 19.782	0.556731
 19.792	0.556697
 19.802	0.556663
 19.812	0.556629
 19.822	0.556595
 19.832	0.556561
 19.842	0.556528
 19.852	0.556494
 19.862	0.55646
 19.872	0.556426
 19.882	0.556392
 19.892	0.556358
 19.902	0.556324
 19.912	0.556291
 19.922	0.556257
 19.932	0.556223
 19.942	0.556189
 19.952	0.556155
 19.962	0.556121
 19.972	0.556087
 19.982	0.556054
 19.992	0.55602
 20.002	0.555992
 20.012	0.555988
 20.022	0.555985
 20.032	0.555982
 20.042	0.555978
 20.052	0.555975
 20.062	0.555971
 20.072	0.555968
 20.082	0.555964
 20.092	0.555961
 20.102	0.555957
 20.112	0.555954
 20.122	0.55595
 20.132	0.555947
 20.142	0.555943
 20.152	0.55594
 20.162	0.555936
 20.172	0.555933
 20.182	0.555929
 20.192	0.555926
 20.202	0.555922
 20.212	0.555919
 20.222	0.555915
 20.232	0.555912
 20.242	0.555908
 20.252	0.555905
 20.262	0.555901
 20.272	0.555898
 20.282	0.555894
 20.292	0.555891
 20.302	0.555887
 20.312	0.555884
 20.322	0.55588
 20.332	0.555877
 20.342	0.555873
 20.352	0.55587
 20.362	0.555866
 20.372	0.555863
 20.382	0.555859
 20.392	0.555856
 20.402	0.555852
 20.412	0.555849
 20.422	0.555845
 20.432	0.555842
 20.442	0.555838
 20.452	0.555835
 20.462	0.555831
 20.472	0.555828
 20.482	0.555824
 20.492	0.555821
 20.5021	0.555817
 20.5121	0.555814
 20.5221	0.55581
 20.5321	0.555807
 20.5421	0.555803
 20.5521	0.5558
 20.5621	0.555796
 20.5721	0.555793
 20.5821	0.555789
 20.5921	0.555786
 20.6021	0.555782
 20.6121	0.555779
 20.6221	0.555775
 20.6321	0.555772
 20.6421	0.555768
 20.6521	0.555765
 20.6621	0.555761
 20.6721	0.555758
 20.6821	0.555754
 20.6921	0.555751
 20.7021	0.555747
 20.7121	0.555744
 20.7221	0.55574
 20.7321	0.555737
 20.7421	0.555733
 20.7521	0.55573
 20.7621	0.555726
 20.7721	0.555723
 20.7821	0.555719
 20.7921	0.555716
 20.8021	0.555712
 20.8121	0.555709
 20.8221	0.555705
 20.8321	0.555702
 20.8421	0.555698
 20.8521	0.555695
 20.8621	0.555691
 20.8721	0.555688
 20.8821	0.555684
 20.8921	0.555681
 20.9021	0.555677
 20.9121	0.555674
 20.9221	0.55567
 20.9321	0.555667
 20.9421	0.555663
 20.9521	0.55566
 20.9621	0.555656
 20.9721	0.555653
 20.9821	0.555649
 20.9921	0.555646
 21.0021	0.555642
 21.0121	0.555639
 21.0221	0.555635
 21.0321	0.555632
 21.0421	0.555628
 21.0521	0.555625
 21.0621	0.555621
 21.0721	0.555618
 21.0821	0.555614
 21.0921	0.555611
 21.1021	0.555607
 21.1121	0.555604
 21.1221	0.5556
 21.1321	0.555597
 21.1421	0.555593
 21.1521	0.55559
 21.1621	0.555586
 21.1721	0.555583
 21.1821	0.555579
 21.1921	0.555576
 21.2021	0.555572
 21.2121	0.555569
 21.2221	0.555565
 21.2321	0.555562
 21.2421	0.555558
 21.2521	0.555555
 21.2621	0.555551
 21.2721	0.555548
 21.2821	0.555544
 21.2921	0.555541
 21.3021	0.555537
 21.3121	0.555534
 21.3221	0.55553
 21.3321	0.555527
 21.3421	0.555523
 21.3521	0.55552
 21.3621	0.555516
 21.3721	0.555513
 21.3821	0.555509
 21.3921	0.555506
 21.4021	0.555502
 21.4121	0.555499
 21.4221	0.555495
 21.4321	0.555492
 21.4421	0.555488
 21.4521	0.555485
 21.4621	0.555481
 21.4721	0.555478
 21.4821	0.555474
 21.4921	0.555471
 21.5022	0.555467
 21.5122	0.555464
 21.5222	0.55546
 21.5322	0.555457
 21.5422	0.555453
 21.5522	0.55545
 21.5622	0.555446
 21.5722	0.555443
 21.5822	0.555439
 21.5922	0.555436
 21.6022	0.555432
 21.6122	0.555429
 21.6222	0.555425
 21.6322	0.555422
 21.6422	0.555418
 21.6522	0.555415
 21.6622	0.555411
 21.6722	0.555408
 21.6822	0.555404
 21.6922	0.555401
 21.7022	0.555397
 21.7122	0.555394
 21.7222	0.55539
 21.7322	0.555387
 21.7422	0.555383
 21.7522	0.55538
 21.7622	0.555376
 21.7722	0.555373
 21.7822	0.555369
 21.7922	0.555366
 21.8022	0.555362
 21.8122	0.555359
 21.8222	0.555355
 21.8322	0.555352
 21.8422	0.555348
 21.8522	0.555345
 21.8622	0.555341
 21.8722	0.555338
 21.8822	0.555334
 21.8922	0.555331
 21.9022	0.555327
 21.9122	0.555324
 21.9222	0.555321
 21.9322	0.555317
 21.9422	0.555314
 21.9522	0.55531
 21.9622	0.555307
 21.9722	0.555303
 21.9822	0.5553
 21.9922	0.555296
 22.0022	0.555293
 22.0122	0.555289
 22.0222	0.555286
 22.0322	0.555282
 22.0422	0.555279
 22.0522	0.555275
 22.0622	0.555272
 22.0722	0.555268
 22.0822	0.555265
 22.0922	0.555261
 22.1022	0.555258
 22.1122	0.555254
 22.1222	0.555251
 22.1322	0.555247
 22.1422	0.555244
 22.1522	0.55524
 22.1622	0.555237
 22.1722	0.555233
 22.1822	0.55523
 22.1922	0.555226
 22.2022	0.555223
 22.2122	0.555219
 22.2222	0.555216
 22.2322	0.555212
 22.2422	0.555209
 22.2522	0.555205
 22.2622	0.555202
 22.2722	0.555198
 22.2822	0.555195
 22.2922	0.555191
 22.3022	0.555188
 22.3122	0.555184
 22.3222	0.555181
 22.3322	0.555177
 22.3422	0.555174
 22.3522	0.55517
 22.3622	0.555167
 22.3722	0.555163
 22.3822	0.55516
 22.3922	0.555156
 22.4022	0.555153
 22.4122	0.555149
 22.4222	0.555146
 22.4322	0.555142
 22.4422	0.555139
 22.4522	0.555135
 22.4622	0.555132
 22.4722	0.555128
 22.4822	0.555125
 22.4922	0.555121
 22.5023	0.555118
 22.5123	0.555114
 22.5223	0.555111
 22.5323	0.555107
 22.5423	0.555104
 22.5523	0.5551
 22.5623	0.555097
 22.5723	0.555093
 22.5823	0.55509
 22.5923	0.555086
 22.6023	0.555083
 22.6123	0.555079
 22.6223	0.555076
 22.6323	0.555072
 22.6423	0.555069
 22.6523	0.555065
 22.6623	0.555062
 22.6723	0.555058
 22.6823	0.555055
 22.6923	0.555051
 22.7023	0.555048
 22.7123	0.555044
 22.7223	0.555041
 22.7323	0.555037
 22.7423	0.555034
 22.7523	0.55503
 22.7623	0.555027
 22.7723	0.555023
 22.7823	0.55502
 22.7923	0.555016
 22.8023	0.555013
 22.8123	0.555009
 22.8223	0.555006
 22.8323	0.555002
 22.8423	0.554999
 22.8523	0.554995
 22.8623	0.554992
 22.8723	0.554988
 22.8823	0.554985
 22.8923	0.554981
 22.9023	0.554978
 22.9123	0.554974
 22.9223	0.554971
 22.9323	0.554967
 22.9423	0.554964
 22.9523	0.55496
 22.9623	0.554957
 22.9723	0.554953
 22.9823	0.55495
 22.9923	0.554946
 23.0023	0.554943
 23.0123	0.554939
 23.0223	0.554936
 23.0323	0.554932
 23.0423	0.554929
 23.0523	0.554925
 23.0623	0.554922
 23.0723	0.554918
 23.0823	0.554915
 23.0923	0.554911
 23.1023	0.554908
 23.1123	0.554904
 23.1223	0.554901
 23.1323	0.554897
 23.1423	0.554894
 23.1523	0.55489
 23.1623	0.554887
 23.1723	0.554883
 23.1823	0.55488
 23.1923	0.554876
 23.2023	0.554873
 23.2123	0.554869
 23.2223	0.554866
 23.2323	0.554862
 23.2423	0.554859
 23.2523	0.554855
 23.2623	0.554852
 23.2723	0.554848
 23.2823	0.554845
 23.2923	0.554841
 23.3023	0.554838
 23.3123	0.554834
 23.3223	0.554831
 23.3323	0.554827
 23.3423	0.554824
 23.3523	0.55482
 23.3623	0.554817
 23.3723	0.554813
 23.3823	0.55481
 23.3923	0.554806
 23.4023	0.554803
 23.4123	0.554799
 23.4223	0.554796
 23.4323	0.554792
 23.4423	0.554789
 23.4523	0.554785
 23.4623	0.554782
 23.4723	0.554778
 23.4823	0.554775
 23.4923	0.554771
 23.5024	0.554768
 23.5124	0.554764
 23.5224	0.554761
 23.5324	0.554757
 23.5424	0.554754
 23.5524	0.55475
 23.5624	0.554747
 23.5724	0.554743
 23.5824	0.55474
 23.5924	0.554736
 23.6024	0.554733
 23.6124	0.554729
 23.6224	0.554726
 23.6324	0.554722
 23.6424	0.554719
 23.6524	0.554715
 23.6624	0.554712
 23.6724	0.554708
 23.6824	0.554705
 23.6924	0.554701
 23.7024	0.554698
 23.7124	0.554694
 23.7224	0.554691
 23.7324	0.554687
 23.7424	0.554684
 23.7524	0.55468
 23.7624	0.554677
 23.7724	0.554673
 23.7824	0.55467
 23.7924	0.554666
 23.8024	0.554663
 23.8124	0.554659
 23.8224	0.554656
 23.8324	0.554653
 23.8424	0.554649
 23.8524	0.554646
 23.8624	0.554642
 23.8724	0.554639
 23.8824	0.554635
 23.8924	0.554632
 23.9024	0.554628
 23.9124	0.554625
 23.9224	0.554621
 23.9324	0.554618
 23.9424	0.554614
 23.9524	0.554611
 23.9624	0.554607
 23.9724	0.554604
 23.9824	0.5546
 23.9924	0.554597
 24.0024	0.554593
 24.0124	0.55459
 24.0224	0.554586
 24.0324	0.554583
 24.0424	0.554579
 24.0524	0.554576
 24.0624	0.554572
 24.0724	0.554569
 24.0824	0.554565
 24.0924	0.554562
 24.1024	0.554558
 24.1124	0.554555
 24.1224	0.554551
 24.1324	0.554548
 24.1424	0.554544
 24.1524	0.554541
 24.1624	0.554537
 24.1724	0.554534
 24.1824	0.55453
 24.1924	0.554527
 24.2024	0.554523
 24.2124	0.55452
 24.2224	0.554516
 24.2324	0.554513
 24.2424	0.554509
 24.2524	0.554506
 24.2624	0.554502
 24.2724	0.554499
 24.2824	0.554495
 24.2924	0.554492
 24.3024	0.554488
 24.3124	0.554485
 24.3224	0.554481
 24.3324	0.554478
 24.3424	0.554474
 24.3524	0.554471
 24.3624	0.554467
 24.3724	0.554464
 24.3824	0.55446
 24.3924	0.554457
 24.4024	0.554453
 24.4124	0.55445
 24.4224	0.554446
 24.4324	0.554443
 24.4424	0.554439
 24.4524	0.554436
 24.4624	0.554432
 24.4724	0.554429
 24.4824	0.554425
 24.4924	0.554422
 24.5025	0.554418
 24.5125	0.554415
 24.5225	0.554411
 24.5325	0.554408
 24.5425	0.554404
 24.5525	0.554401
 24.5625	0.554397
 24.5725	0.554394
 24.5825	0.55439
 24.5925	0.554387
 24.6025	0.554383
 24.6125	0.55438
 24.6225	0.554376
 24.6325	0.554373
 24.6425	0.554369
 24.6525	0.554366
 24.6625	0.554362
 24.6725	0.554359
 24.6825	0.554355
 24.6925	0.554352
 24.7025	0.554348
 24.7125	0.554345
 24.7225	0.554341
 24.7325	0.554338
 24.7425	0.554334
 24.7525	0.554331
 24.7625	0.554327
 24.7725	0.554324
 24.7825	0.55432
 24.7925	0.554317
 24.8025	0.554313
 24.8125	0.55431
 24.8225	0.554306
 24.8325	0.554303
 24.8425	0.554299
 24.8525	0.554296
 24.8625	0.554292
 24.8725	0.554289
 24.8825	0.554285
 24.8925	0.554282
 24.9025	0.554278
 24.9125	0.554275
 24.9225	0.554271
 24.9325	0.554268
 24.9425	0.554264
 24.9525	0.554261
 24.9625	0.554257
 24.9725	0.554254
 24.9825	0.55425
 24.9925	0.554247
 25.0025	0.554242
 25.0125	0.554234
 25.0225	0.554225
 25.0325	0.554217
 25.0425	0.554208
 25.0525	0.5542
 25.0625	0.554192
 25.0725	0.554183
 25.0825	0.554175
 25.0925	0.554167
 25.1025	0.554158
 25.1125	0.55415
 25.1225	0.554141
 25.1325	0.554133
 25.1425	0.554125
 25.1525	0.554116
 25.1625	0.554108
 25.1725	0.554099
 25.1825	0.554091
 25.1925	0.554083
 25.2025	0.554074
 25.2125	0.554066
 25.2225	0.554057
 25.2325	0.554049
 25.2425	0.554041
 25.2525	0.554032
 25.2625	0.554024
 25.2725	0.554015
 25.2825	0.554007
 25.2925	0.553999
 25.3025	0.55399
 25.3125	0.553982
 25.3225	0.553973
 25.3325	0.553965
 25.3425	0.553957
 25.3525	0.553948
 25.3625	0.55394
 25.3725	0.553931
 25.3825	0.553923
 25.3925	0.553915
 25.4025	0.553906
 25.4125	0.553898
 25.4225	0.553889
 25.4325	0.553881
 25.4425	0.553873
 25.4525	0.553864
 25.4625	0.553856
 25.4725	0.553847
 25.4825	0.553839
 25.4925	0.553831
 25.5026	0.553822
 25.5126	0.553814
 25.5226	0.553805
 25.5326	0.553797
 25.5426	0.553789
 25.5526	0.55378
 25.5626	0.553772
 25.5726	0.553763
 25.5826	0.553755
 25.5926	0.553747
 25.6026	0.553738
 25.6126	0.55373
 25.6226	0.553721
 25.6326	0.553713
 25.6426	0.553705
 25.6526	0.553696
 25.6626	0.553688
 25.6726	0.553679
 25.6826	0.553671
 25.6926	0.553663
 25.7026	0.553654
 25.7126	0.553646
 25.7226	0.553637
 25.7326	0.553629
 25.7426	0.553621
 25.7526	0.553612
 25.7626	0.553604
 25.7726	0.553595
 25.7826	0.553587
 25.7926	0.553579
 25.8026	0.55357
 25.8126	0.553562
 25.8226	0.553553
 25.8326	0.553545
 25.8426	0.553537
 25.8526	0.553528
 25.8626	0.55352
 25.8726	0.553511
 25.8826	0.553503
 25.8926	0.553495
 25.9026	0.553486
 25.9126	0.553478
 25.9226	0.553469
 25.9326	0.553461
 25.9426	0.553453
 25.9526	0.553444
 25.9626	0.553436
 25.9726	0.553428
 25.9826	0.553419
 25.9926	0.553411
 26.0026	0.553402
 26.0126	0.553394
 26.0226	0.553386
 26.0326	0.553377
 26.0426	0.553369
 26.0526	0.55336
 26.0626	0.553352
 26.0726	0.553344
 26.0826	0.553335
 26.0926	0.553327
 26.1026	0.553318
 26.1126	0.55331
 26.1226	0.553302
 26.1326	0.553293
 26.1426	0.553285
 26.1526	0.553276
 26.1626	0.553268
 26.1726	0.55326
 26.1826	0.553251
 26.1926	0.553243
 26.2026	0.553234
 26.2126	0.553226
 26.2226	0.553218
 26.2326	0.553209
 26.2426	0.553201
 26.2526	0.553192
 26.2626	0.553184
 26.2726	0.553176
 26.2826	0.553167
 26.2926	0.553159
 26.3026	0.55315
 26.3126	0.553142
 26.3226	0.553134
 26.3326	0.553125
 26.3426	0.553117
 26.3526	0.553108
 26.3626	0.5531
 26.3726	0.553092
 26.3826	0.553083
 26.3926	0.553075
 26.4026	0.553066
 26.4126	0.553058
 26.4226	0.55305
 26.4326	0.553041
 26.4426	0.553033
 26.4526	0.553024
 26.4626	0.553016
 26.4726	0.553008
 26.4826	0.552999
 26.4926	0.552991
 26.5027	0.552982
 26.5127	0.552974
 26.5227	0.552966
 26.5327	0.552957
 26.5427	0.552949
 26.5527	0.55294
 26.5627	0.552932
 26.5727	0.552924
 26.5827	0.552915
 26.5927	0.552907
 26.6027	0.552898
 26.6127	0.55289
 26.6227	0.552882
 26.6327	0.552873
 26.6427	0.552865
 26.6527	0.552856
 26.6627	0.552848
 26.6727	0.55284
 26.6827	0.552831
 26.6927	0.552823
 26.7027	0.552814
 26.7127	0.552806
 26.7227	0.552798
 26.7327	0.552789
 26.7427	0.552781
 26.7527	0.552772
 26.7627	0.552764
 26.7727	0.552756
 26.7827	0.552747
 26.7927	0.552739
 26.8027	0.55273
 26.8127	0.552722
 26.8227	0.552714
 26.8327	0.552705
 26.8427	0.552697
 26.8527	0.552689
 26.8627	0.55268
 26.8727	0.552672
 26.8827	0.552663
 26.8927	0.552655
 26.9027	0.552647
 26.9127	0.552638
 26.9227	0.55263
 26.9327	0.552621
 26.9427	0.552613
 26.9527	0.552605
 26.9627	0.552596
 26.9727	0.552588
 26.9827	0.552579
 26.9927	0.552571
 27.0027	0.552563
 27.0127	0.552554
 27.0227	0.552546
 27.0327	0.552537
 27.0427	0.552529
 27.0527	0.552521
 27.0627	0.552512
 27.0727	0.552504
 27.0827	0.552495
 27.0927	0.552487
 27.1027	0.552479
 27.1127	0.55247
 27.1227	0.552462
 27.1327	0.552453
 27.1427	0.552445
 27.1527	0.552437
 27.1627	0.552428
 27.1727	0.55242
 27.1827	0.552411
 27.1927	0.552403
 27.2027	0.552395
 27.2127	0.552386
 27.2227	0.552378
 27.2327	0.552369
 27.2427	0.552361
 27.2527	0.552353
 27.2627	0.552344
 27.2727	0.552336
 27.2827	0.552327
 27.2927	0.552319
 27.3027	0.552311
 27.3127	0.552302
 27.3227	0.552294
 27.3327	0.552285
 27.3427	0.552277
 27.3527	0.552269
 27.3627	0.55226
 27.3727	0.552252
 27.3827	0.552243
 27.3927	0.552235
 27.4027	0.552227
 27.4127	0.552218
 27.4227	0.55221
 27.4327	0.552201
 27.4427	0.552193
 27.4527	0.552185
 27.4627	0.552176
 27.4727	0.552168
 27.4827	0.552159
 27.4927	0.552151
 27.5028	0.552143
 27.5128	0.552134
 27.5228	0.552126
 27.5328	0.552117
 27.5428	0.552109
 27.5528	0.552101
 27.5628	0.552092
 27.5728	0.552084
 27.5828	0.552075
 27.5928	0.552067
 27.6028	0.552059
 27.6128	0.55205
 27.6228	0.552042
 27.6328	0.552033
 27.6428	0.552025
 27.6528	0.552017
 27.6628	0.552008
 27.6728	0.552
 27.6828	0.551991
 27.6928	0.551983
 27.7028	0.551975
 27.7128	0.551966
 27.7228	0.551958
 27.7328	0.551949
 27.7428	0.551941
 27.7528	0.551933
 27.7628	0.551924
 27.7728	0.551916
 27.7828	0.551908
 27.7928	0.551899
 27.8028	0.551891
 27.8128	0.551882
 27.8228	0.551874
 27.8328	0.551866
 27.8428	0.551857
 27.8528	0.551849
 27.8628	0.55184
 27.8728	0.551832
 27.8828	0.551824
 27.8928	0.551815
 27.9028	0.551807
 27.9128	0.551798
 27.9228	0.55179
 27.9328	0.551782
 27.9428	0.551773
 27.9528	0.551765
 27.9628	0.551756
 27.9728	0.551748
 27.9828	0.55174
 27.9928	0.551731
 28.0028	0.551723
 28.0128	0.551714
 28.0228	0.551706
 28.0328	0.551698
 28.0428	0.551689
 28.0528	0.551681
 28.0628	0.551672
 28.0728	0.551664
 28.0828	0.551656
 28.0928	0.551647
 28.1028	0.551639
 28.1128	0.55163
 28.1228	0.551622
 28.1328	0.551614
 28.1428	0.551605
 28.1528	0.551597
 28.1628	0.551588
 28.1728	0.55158
 28.1828	0.551572
 28.1928	0.551563
 28.2028	0.551555
 28.2128	0.551546
 28.2228	0.551538
 28.2328	0.55153
 28.2428	0.551521
 28.2528	0.551513
 28.2628	0.551504
 28.2728	0.551496
 28.2828	0.551488
 28.2928	0.551479
 28.3028	0.551471
 28.3128	0.551462
 28.3228	0.551454
 28.3328	0.551446
 28.3428	0.551437
 28.3528	0.551429
 28.3628	0.55142
 28.3728	0.551412
 28.3828	0.551404
 28.3928	0.551395
 28.4028	0.551387
 28.4128	0.551378
 28.4228	0.55137
 28.4328	0.551362
 28.4428	0.551353
 28.4528	0.551345
 28.4628	0.551336
 28.4728	0.551328
 28.4828	0.55132
 28.4928	0.551311
 28.5029	0.551303
 28.5129	0.551294
 28.5229	0.551286
 28.5329	0.551278
 28.5429	0.551269
 28.5529	0.551261
 28.5629	0.551252
 28.5729	0.551244
 28.5829	0.551236
 28.5929	0.551227
 28.6029	0.551219
 28.6129	0.55121
 28.6229	0.551202
 28.6329	0.551194
 28.6429	0.551185
 28.6529	0.551177
 28.6629	0.551169
 28.6729	0.55116
 28.6829	0.551152
 28.6929	0.551143
 28.7029	0.551135
 28.7129	0.551127
 28.7229	0.551118
 28.7329	0.55111
 28.7429	0.551101
 28.7529	0.551093
 28.7629	0.551085
 28.7729	0.551076
 28.7829	0.551068
 28.7929	0.551059
 28.8029	0.551051
 28.8129	0.551043
 28.8229	0.551034
 28.8329	0.551026
 28.8429	0.551017
 28.8529	0.551009
 28.8629	0.551001
 28.8729	0.550992
 28.8829	0.550984
 28.8929	0.550975
 28.9029	0.550967
 28.9129	0.550959
 28.9229	0.55095
 28.9329	0.550942
 28.9429	0.550933
 28.9529	0.550925
 28.9629	0.550917
 28.9729	0.550908
 28.9829	0.5509
 28.9929	0.550891
 29.0029	0.550883
 29.0129	0.550875
 29.0229	0.550866
 29.0329	0.550858
 29.0429	0.550849
 29.0529	0.550841
 29.0629	0.550833
 29.0729	0.550824
 29.0829	0.550816
 29.0929	0.550807
 29.1029	0.550799
 29.1129	0.550791
 29.1229	0.550782
 29.1329	0.550774
 29.1429	0.550765
 29.1529	0.550757
 29.1629	0.550749
 29.1729	0.55074
 29.1829	0.550732
 29.1929	0.550723
 29.2029	0.550715
 29.2129	0.550707
 29.2229	0.550698
 29.2329	0.55069
 29.2429	0.550681
 29.2529	0.550673
 29.2629	0.550665
 29.2729	0.550656
 29.2829	0.550648
 29.2929	0.550639
 29.3029	0.550631
 29.3129	0.550623
 29.3229	0.550614
 29.3329	0.550606
 29.3429	0.550597
 29.3529	0.550589
 29.3629	0.550581
 29.3729	0.550572
 29.3829	0.550564
 29.3929	0.550555
 29.4029	0.550547
 29.4129	0.550539
 29.4229	0.55053
 29.4329	0.550522
 29.4429	0.550513
 29.4529	0.550505
 29.4629	0.550497
 29.4729	0.550488
 29.4829	0.55048
 29.4929	0.550471
 29.503	0.550463
 29.513	0.550455
 29.523	0.550446
 29.533	0.550438
 29.543	0.55043
 29.553	0.550421
 29.563	0.550413
 29.573	0.550404
 29.583	0.550396
 29.593	0.550388
 29.603	0.550379
 29.613	0.550371
 29.623	0.550362
 29.633	0.550354
 29.643	0.550346
 29.653	0.550337
 29.663	0.550329
 29.673	0.55032
 29.683	0.550312
 29.693	0.550304
 29.703	0.550295
 29.713	0.550287
 29.723	0.550278
 29.733	0.55027
 29.743	0.550262
 29.753	0.550253
 29.763	0.550245
 29.773	0.550236
 29.783	0.550228
 29.793	0.55022
 29.803	0.550211
 29.813	0.550203
 29.823	0.550194
 29.833	0.550186
 29.843	0.550178
 29.853	0.550169
 29.863	0.550161
 29.873	0.550152
 29.883	0.550144
 29.893	0.550136
 29.903	0.550127
 29.913	0.550119
 29.923	0.55011
 29.933	0.550102
 29.943	0.550094
 29.953	0.550085
 29.963	0.550077
 29.973	0.550068
 29.983	0.55006
 29.993	0.550052
 30.003	0.550049
 30.013	0.550061
 30.023	0.550073
 30.033	0.550084
 30.043	0.550096
 30.053	0.550108
 30.063	0.550119
 30.073	0.550131
 30.083	0.550143
 30.093	0.550154
 30.103	0.550166
 30.113	0.550178
 30.123	0.550189
 30.133	0.550201
 30.143	0.550213
 30.153	0.550224
 30.163	0.550236
 30.173	0.550248
 30.183	0.550259
 30.193	0.550271
 30.203	0.550283
 30.213	0.550294
 30.223	0.550306
 30.233	0.550318
 30.243	0.550329
 30.253	0.550341
 30.263	0.550353
 30.273	0.550364
 30.283	0.550376
 30.293	0.550388
 30.303	0.550399
 30.313	0.550411
 30.323	0.550423
 30.333	0.550434
 30.343	0.550446
 30.353	0.550458
 30.363	0.550469
 30.373	0.550481
 30.383	0.550493
 30.393	0.550504
 30.403	0.550516
 30.413	0.550528
 30.423	0.550539
 30.433	0.550551
 30.443	0.550563
 30.453	0.550574
 30.463	0.550586
 30.473	0.550598
 30.483	0.550609
 30.493	0.550621
 30.5031	0.550633
 30.5131	0.550644
 30.5231	0.550656
 30.5331	0.550668
 30.5431	0.550679
 30.5531	0.550691
 30.5631	0.550703
 30.5731	0.550715
 30.5831	0.550726
 30.5931	0.550738
 30.6031	0.55075
 30.6131	0.550761
 30.6231	0.550773
 30.6331	0.550785
 30.6431	0.550796
 30.6531	0.550808
 30.6631	0.55082
 30.6731	0.550831
 30.6831	0.550843
 30.6931	0.550855
 30.7031	0.550866
 30.7131	0.550878
 30.7231	0.55089
 30.7331	0.550901
 30.7431	0.550913
 30.7531	0.550925
 30.7631	0.550936
 30.7731	0.550948
 30.7831	0.55096
 30.7931	0.550971
 30.8031	0.550983
 30.8131	0.550995
 30.8231	0.551006
 30.8331	0.551018
 30.8431	0.55103
 30.8531	0.551041
 30.8631	0.551053
 30.8731	0.551065
 30.8831	0.551076
 30.8931	0.551088
 30.9031	0.5511
 30.9131	0.551111
 30.9231	0.551123
 30.9331	0.551135
 30.9431	0.551146
 30.9531	0.551158
 30.9631	0.55117
 30.9731	0.551181
 30.9831	0.551193
 30.9931	0.551205
 31.0031	0.551216
 31.0131	0.551228
 31.0231	0.55124
 31.0331	0.551251
 31.0431	0.551263
 31.0531	0.551275
 31.0631	0.551286
 31.0731	0.551298
 31.0831	0.55131
 31.0931	0.551321
 31.1031	0.551333
 31.1131	0.551345
 31.1231	0.551356
 31.1331	0.551368
 31.1431	0.55138
 31.1531	0.551391
 31.1631	0.551403
 31.1731	0.551415
 31.1831	0.551426
 31.1931	0.551438
 31.2031	0.55145
 31.2131	0.551461
 31.2231	0.551473
 31.2331	0.551485
 31.2431	0.551496
 31.2531	0.551508
 31.2631	0.55152
 31.2731	0.551532
 31.2831	0.551543
 31.2931	0.551555
 31.3031	0.551567
 31.3131	0.551578
 31.3231	0.55159
 31.3331	0.551602
 31.3431	0.551613
 31.3531	0.551625
 31.3631	0.551637
 31.3731	0.551648
 31.3831	0.55166
 31.3931	0.551672
 31.4031	0.551683
 31.4131	0.551695
 31.4231	0.551707
 31.4331	0.551718
 31.4431	0.55173
 31.4531	0.551742
 31.4631	0.551753
 31.4731	0.551765
 31.4831	0.551777
 31.4931	0.551788
 31.5032	0.5518
 31.5132	0.551812
 31.5232	0.551823
 31.5332	0.551835
 31.5432	0.551847
 31.5532	0.551858
 31.5632	0.55187
 31.5732	0.551882
 31.5832	0.551893
 31.5932	0.551905
 31.6032	0.551917
 31.6132	0.551928
 31.6232	0.55194
 31.6332	0.551952
 31.6432	0.551963
 31.6532	0.551975
 31.6632	0.551987
 31.6732	0.551998
 31.6832	0.55201
 31.6932	0.552022
 31.7032	0.552033
 31.7132	0.552045
 31.7232	0.552057
 31.7332	0.552068
 31.7432	0.55208
 31.7532	0.552092
 31.7632	0.552103
 31.7732	0.552115
 31.7832	0.552127
 31.7932	0.552138
 31.8032	0.55215
 31.8132	0.552162
 31.8232	0.552173
 31.8332	0.552185
 31.8432	0.552197
 31.8532	0.552208
 31.8632	0.55222
 31.8732	0.552232
 31.8832	0.552243
 31.8932	0.552255
 31.9032	0.552267
 31.9132	0.552278
 31.9232	0.55229
 31.9332	0.552302
 31.9432	0.552313
 31.9532	0.552325
 31.9632	0.552337
 31.9732	0.552349
 31.9832	0.55236
 31.9932	0.552372
 32.0032	0.552384
 32.0132	0.552395
 32.0232	0.552407
 32.0332	0.552419
 32.0432	0.55243
 32.0532	0.552442
 32.0632	0.552454
 32.0732	0.552465
 32.0832	0.552477
 32.0932	0.552489
 32.1032	0.5525
 32.1132	0.552512
 32.1232	0.552524
 32.1332	0.552535
 32.1432	0.552547
 32.1532	0.552559
 32.1632	0.55257
 32.1732	0.552582
 32.1832	0.552594
 32.1932	0.552605
 32.2032	0.552617
 32.2132	0.552629
 32.2232	0.55264
 32.2332	0.552652
 32.2432	0.552664
 32.2532	0.552675
 32.2632	0.552687
 32.2732	0.552699
 32.2832	0.55271
 32.2932	0.552722
 32.3032	0.552734
 32.3132	0.552745
 32.3232	0.552757
 32.3332	0.552769
 32.3432	0.55278
 32.3532	0.552792
 32.3632	0.552804
 32.3732	0.552815
 32.3832	0.552827
 32.3932	0.552839
 32.4032	0.55285
 32.4132	0.552862
 32.4232	0.552874
 32.4332	0.552885
 32.4432	0.552897
 32.4532	0.552909
 32.4632	0.55292
 32.4732	0.552932
 32.4832	0.552944
 32.4932	0.552955
 32.5033	0.552967
 32.5133	0.552979
 32.5233	0.55299
 32.5333	0.553002
 32.5433	0.553014
 32.5533	0.553025
 32.5633	0.553037
 32.5733	0.553049
 32.5833	0.55306
 32.5933	0.553072
 32.6033	0.553084
 32.6133	0.553095
 32.6233	0.553107
 32.6333	0.553119
 32.6433	0.55313
 32.6533	0.553142
 32.6633	0.553154
 32.6733	0.553166
 32.6833	0.553177
 32.6933	0.553189
 32.7033	0.553201
 32.7133	0.553212
 32.7233	0.553224
 32.7333	0.553236
 32.7433	0.553247
 32.7533	0.553259
 32.7633	0.553271
 32.7733	0.553282
 32.7833	0.553294
 32.7933	0.553306
 32.8033	0.553317
 32.8133	0.553329
 32.8233	0.553341
 32.8333	0.553352
 32.8433	0.553364
 32.8533	0.553376
 32.8633	0.553387
 32.8733	0.553399
 32.8833	0.553411
 32.8933	0.553422
 32.9033	0.553434
 32.9133	0.553446
 32.9233	0.553457
 32.9333	0.553469
 32.9433	0.553481
 32.9533	0.553492
 32.9633	0.553504
 32.9733	0.553516
 32.9833	0.553527
 32.9933	0.553539
 33.0033	0.553551
 33.0133	0.553562
 33.0233	0.553574
 33.0333	0.553586
 33.0433	0.553597
 33.0533	0.553609
 33.0633	0.553621
 33.0733	0.553632
 33.0833	0.553644
 33.0933	0.553656
 33.1033	0.553667
 33.1133	0.553679
 33.1233	0.553691
 33.1333	0.553702
 33.1433	0.553714
 33.1533	0.553726
 33.1633	0.553737
 33.1733	0.553749
 33.1833	0.553761
 33.1933	0.553772
 33.2033	0.553784
 33.2133	0.553796
 33.2233	0.553807
 33.2333	0.553819
 33.2433	0.553831
 33.2533	0.553842
 33.2633	0.553854
 33.2733	0.553866
 33.2833	0.553877
 33.2933	0.553889
 33.3033	0.553901
 33.3133	0.553912
 33.3233	0.553924
 33.3333	0.553936
 33.3433	0.553948
 33.3533	0.553959
 33.3633	0.553971
 33.3733	0.553983
 33.3833	0.553994
 33.3933	0.554006
 33.4033	0.554018
 33.4133	0.554029
 33.4233	0.554041
 33.4333	0.554053
 33.4433	0.554064
 33.4533	0.554076
 33.4633	0.554088
 33.4733	0.554099
 33.4833	0.554111
 33.4933	0.554123
 33.5034	0.554134
 33.5134	0.554146
 33.5234	0.554158
 33.5334	0.554169
 33.5434	0.554181
 33.5534	0.554193
 33.5634	0.554204
 33.5734	0.554216
 33.5834	0.554228
 33.5934	0.554239
 33.6034	0.554251
 33.6134	0.554263
 33.6234	0.554274
 33.6334	0.554286
 33.6434	0.554298
 33.6534	0.554309
 33.6634	0.554321
 33.6734	0.554333
 33.6834	0.554344
 33.6934	0.554356
 33.7034	0.554368
 33.7134	0.554379
 33.7234	0.554391
 33.7334	0.554403
 33.7434	0.554414
 33.7534	0.554426
 33.7634	0.554438
 33.7734	0.554449
 33.7834	0.554461
 33.7934	0.554473
 33.8034	0.554484
 33.8134	0.554496
 33.8234	0.554508
 33.8334	0.554519
 33.8434	0.554531
 33.8534	0.554543
 33.8634	0.554554
 33.8734	0.554566
 33.8834	0.554578
 33.8934	0.554589
 33.9034	0.554601
 33.9134	0.554613
 33.9234	0.554624
 33.9334	0.554636
 33.9434	0.554648
 33.9534	0.554659
 33.9634	0.554671
 33.9734	0.554683
 33.9834	0.554694
 33.9934	0.554706
 34.0034	0.554718
 34.0134	0.554729
 34.0234	0.554741
 34.0334	0.554753
 34.0434	0.554765
 34.0534	0.554776
 34.0634	0.554788
 34.0734	0.5548
 34.0834	0.554811
 34.0934	0.554823
 34.1034	0.554835
 34.1134	0.554846
 34.1234	0.554858
 34.1334	0.55487
 34.1434	0.554881
 34.1534	0.554893
 34.1634	0.554905
 34.1734	0.554916
 34.1834	0.554928
 34.1934	0.55494
 34.2034	0.554951
 34.2134	0.554963
 34.2234	0.554975
 34.2334	0.554986
 34.2434	0.554998
 34.2534	0.55501
 34.2634	0.555021
 34.2734	0.555033
 34.2834	0.555045
 34.2934	0.555056
 34.3034	0.555068
 34.3134	0.55508
 34.3234	0.555091
 34.3334	0.555103
 34.3434	0.555115
 34.3534	0.555126
 34.3634	0.555138
 34.3734	0.55515
 34.3834	0.555161
 34.3934	0.555173
 34.4034	0.555185
 34.4134	0.555196
 34.4234	0.555208
 34.4334	0.55522
 34.4434	0.555231
 34.4534	0.555243
 34.4634	0.555255
 34.4734	0.555266
 34.4834	0.555278
 34.4934	0.55529
 34.5035	0.555301
 34.5135	0.555313
 34.5235	0.555325
 34.5335	0.555336
 34.5435	0.555348
 34.5535	0.55536
 34.5635	0.555371
 34.5735	0.555383
 34.5835	0.555395
 34.5935	0.555406
 34.6035	0.555418
 34.6135	0.55543
 34.6235	0.555441
 34.6335	0.555453
 34.6435	0.555465
 34.6535	0.555476
 34.6635	0.555488
 34.6735	0.5555
 34.6835	0.555511
 34.6935	0.555523
 34.7035	0.555535
 34.7135	0.555546
 34.7235	0.555558
 34.7335	0.55557
 34.7435	0.555582
 34.7535	0.555593
 34.7635	0.555605
 34.7735	0.555617
 34.7835	0.555628
 34.7935	0.55564
 34.8035	0.555652
 34.8135	0.555663
 34.8235	0.555675
 34.8335	0.555687
 34.8435	0.555698
 34.8535	0.55571
 34.8635	0.555722
 34.8735	0.555733
 34.8835	0.555745
 34.8935	0.555757
 34.9035	0.555768
 34.9135	0.55578
 34.9235	0.555792
 34.9335	0.555803
 34.9435	0.555815
 34.9535	0.555827
 34.9635	0.555838
 34.9735	0.55585
 34.9835	0.555862
 34.9935	0.555873
 35.0035	0.555884
 35.0135	0.555894
 35.0235	0.555903
 35.0335	0.555912
 35.0435	0.555922
 35.0535	0.555931
 35.0635	0.55594
 35.0735	0.55595
 35.0835	0.555959
 35.0935	0.555968
 35.1035	0.555978
 35.1135	0.555987
 35.1235	0.555996
 35.1335	0.556006
 35.1435	0.556015
 35.1535	0.556024
 35.1635	0.556034
 35.1735	0.556043
 35.1835	0.556053
 35.1935	0.556062
 35.2035	0.556071
 35.2135	0.556081
 35.2235	0.55609
 35.2335	0.556099
 35.2435	0.556109
 35.2535	0.556118
 35.2635	0.556127
 35.2735	0.556137
 35.2835	0.556146
 35.2935	0.556155
 35.3035	0.556165
 35.3135	0.556174
 35.3235	0.556183
 35.3335	0.556193
 35.3435	0.556202
 35.3535	0.556212
 35.3635	0.556221
 35.3735	0.55623
 35.3835	0.55624
 35.3935	0.556249
 35.4035	0.556258
 35.4135	0.556268
 35.4235	0.556277
 35.4335	0.556286
 35.4435	0.556296
 35.4535	0.556305
 35.4635	0.556314
 35.4735	0.556324
 35.4835	0.556333
 35.4935	0.556342
 35.5036	0.556352
 35.5136	0.556361
 35.5236	0.556371
 35.5336	0.55638
 35.5436	0.556389
 35.5536	0.556399
 35.5636	0.556408
 35.5736	0.556417
 35.5836	0.556427
 35.5936	0.556436
 35.6036	0.556445
 35.6136	0.556455
 35.6236	0.556464
 35.6336	0.556473
 35.6436	0.556483
 35.6536	0.556492
 35.6636	0.556501
 35.6736	0.556511
 35.6836	0.55652
 35.6936	0.55653
 35.7036	0.556539
 35.7136	0.556548
 35.7236	0.556558
 35.7336	0.556567
 35.7436	0.556576
 35.7536	0.556586
 35.7636	0.556595
 35.7736	0.556604
 35.7836	0.556614
 35.7936	0.556623
 35.8036	0.556632
 35.8136	0.556642
 35.8236	0.556651
 35.8336	0.55666
 35.8436	0.55667
 35.8536	0.556679
 35.8636	0.556689
 35.8736	0.556698
 35.8836	0.556707
 35.8936	0.556717
 35.9036	0.556726
 35.9136	0.556735
 35.9236	0.556745
 35.9336	0.556754
 35.9436	0.556763
 35.9536	0.556773
 35.9636	0.556782
 35.9736	0.556791
 35.9836	0.556801
 35.9936	0.55681
 36.0036	0.556819
 36.0136	0.556829
 36.0236	0.556838
 36.0336	0.556848
 36.0436	0.556857
 36.0536	0.556866
 36.0636	0.556876
 36.0736	0.556885
 36.0836	0.556894
 36.0936	0.556904
 36.1036	0.556913
 36.1136	0.556922
 36.1236	0.556932
 36.1336	0.556941
 36.1436	0.55695
 36.1536	0.55696
 36.1636	0.556969
 36.1736	0.556978
 36.1836	0.556988
 36.1936	0.556997
 36.2036	0.557007
 36.2136	0.557016
 36.2236	0.557025
 36.2336	0.557035
 36.2436	0.557044
 36.2536	0.557053
 36.2636	0.557063
 36.2736	0.557072
 36.2836	0.557081
 36.2936	0.557091
 36.3036	0.5571
 36.3136	0.557109
 36.3236	0.557119
 36.3336	0.557128
 36.3436	0.557138
 36.3536	0.557147
 36.3636	0.557156
 36.3736	0.557166
 36.3836	0.557175
 36.3936	0.557184
 36.4036	0.557194
 36.4136	0.557203
 36.4236	0.557212
 36.4336	0.557222
 36.4436	0.557231
 36.4536	0.55724
 36.4636	0.55725
 36.4736	0.557259
 36.4836	0.557268
 36.4936	0.557278
 36.5037	0.557287
 36.5137	0.557297
 36.5237	0.557306
 36.5337	0.557315
 36.5437	0.557325
 36.5537	0.557334
 36.5637	0.557343
 36.5737	0.557353
 36.5837	0.557362
 36.5937	0.557371
 36.6037	0.557381
 36.6137	0.55739
 36.6237	0.557399
 36.6337	0.557409
 36.6437	0.557418
 36.6537	0.557427
 36.6637	0.557437
 36.6737	0.557446
 36.6837	0.557456
 36.6937	0.557465
 36.7037	0.557474
 36.7137	0.557484
 36.7237	0.557493
 36.7337	0.557502
 36.7437	0.557512
 36.7537	0.557521
 36.7637	0.55753
 36.7737	0.55754
 36.7837	0.557549
 36.7937	0.557558
 36.8037	0.557568
 36.8137	0.557577
 36.8237	0.557586
 36.8337	0.557596
 36.8437	0.557605
 36.8537	0.557615
 36.8637	0.557624
 36.8737	0.557633
 36.8837	0.557643
 36.8937	0.557652
 36.9037	0.557661
 36.9137	0.557671
 36.9237	0.55768
 36.9337	0.557689
 36.9437	0.557699
 36.9537	0.557708
 36.9637	0.557717
 36.9737	0.557727
 36.9837	0.557736
 36.9937	0.557745
 37.0037	0.557755
 37.0137	0.557764
 37.0237	0.557774
 37.0337	0.557783
 37.0437	0.557792
 37.0537	0.557802
 37.0637	0.557811
 37.0737	0.55782
 37.0837	0.55783
 37.0937	0.557839
 37.1037	0.557848
 37.1137	0.557858
 37.1237	0.557867
 37.1337	0.557876
 37.1437	0.557886
 37.1537	0.557895
 37.1637	0.557904
 37.1737	0.557914
 37.1837	0.557923
 37.1937	0.557933
 37.2037	0.557942
 37.2137	0.557951
 37.2237	0.557961
 37.2337	0.55797
 37.2437	0.557979
 37.2537	0.557989
 37.2637	0.557998
 37.2737	0.558007
 37.2837	0.558017
 37.2937	0.558026
 37.3037	0.558035
 37.3137	0.558045
 37.3237	0.558054
 37.3337	0.558063
 37.3437	0.558073
 37.3537	0.558082
 37.3637	0.558092
 37.3737	0.558101
 37.3837	0.55811
 37.3937	0.55812
 37.4037	0.558129
 37.4137	0.558138
 37.4237	0.558148
 37.4337	0.558157
 37.4437	0.558166
 37.4537	0.558176
 37.4637	0.558185
 37.4737	0.558194
 37.4837	0.558204
 37.4937	0.558213
 37.5038	0.558222
 37.5138	0.558232
 37.5238	0.558241
 37.5338	0.558251
 37.5438	0.55826
 37.5538	0.558269
 37.5638	0.558279
 37.5738	0.558288
 37.5838	0.558297
 37.5938	0.558307
 37.6038	0.558316
 37.6138	0.558325
 37.6238	0.558335
 37.6338	0.558344
 37.6438	0.558353
 37.6538	0.558363
 37.6638	0.558372
 37.6738	0.558381
 37.6838	0.558391
 37.6938	0.5584
 37.7038	0.55841
 37.7138	0.558419
 37.7238	0.558428
 37.7338	0.558438
 37.7438	0.558447
 37.7538	0.558456
 37.7638	0.558466
 37.7738	0.558475
 37.7838	0.558484
 37.7938	0.558494
 37.8038	0.558503
 37.8138	0.558512
 37.8238	0.558522
 37.8338	0.558531
 37.8438	0.558541
 37.8538	0.55855
 37.8638	0.558559
 37.8738	0.558569
 37.8838	0.558578
 37.8938	0.558587
 37.9038	0.558597
 37.9138	0.558606
 37.9238	0.558615
 37.9338	0.558625
 37.9438	0.558634
 37.9538	0.558643
 37.9638	0.558653
 37.9738	0.558662
 37.9838	0.558671
 37.9938	0.558681
 38.0038	0.55869
 38.0138	0.5587
 38.0238	0.558709
 38.0338	0.558718
 38.0438	0.558728
 38.0538	0.558737
 38.0638	0.558746
 38.0738	0.558756
 38.0838	0.558765
 38.0938	0.558774
 38.1038	0.558784
 38.1138	0.558793
 38.1238	0.558802
 38.1338	0.558812
 38.1438	0.558821
 38.1538	0.55883
 38.1638	0.55884
 38.1738	0.558849
 38.1838	0.558859
 38.1938	0.558868
 38.2038	0.558877
 38.2138	0.558887
 38.2238	0.558896
 38.2338	0.558905
 38.2438	0.558915
 38.2538	0.558924
 38.2638	0.558933
 38.2738	0.558943
 38.2838	0.558952
 38.2938	0.558961
 38.3038	0.558971
 38.3138	0.55898
 38.3238	0.558989
 38.3338	0.558999
 38.3438	0.559008
 38.3538	0.559018
 38.3638	0.559027
 38.3738	0.559036
 38.3838	0.559046
 38.3938	0.559055
 38.4038	0.559064
 38.4138	0.559074
 38.4238	0.559083
 38.4338	0.559092
 38.4438	0.559102
 38.4538	0.559111
 38.4638	0.55912
 38.4738	0.55913
 38.4838	0.559139
 38.4938	0.559148
 38.5039	0.559158
 38.5139	0.559167
 38.5239	0.559177
 38.5339	0.559186
 38.5439	0.559195
 38.5539	0.559205
 38.5639	0.559214
 38.5739	0.559223
 38.5839	0.559233
 38.5939	0.559242
 38.6039	0.559251
 38.6139	0.559261
 38.6239	0.55927
 38.6339	0.559279
 38.6439	0.559289
 38.6539	0.559298
 38.6639	0.559307
 38.6739	0.559317
 38.6839	0.559326
 38.6939	0.559336
 38.7039	0.559345
 38.7139	0.559354
 38.7239	0.559364
 38.7339	0.559373
 38.7439	0.559382
 38.7539	0.559392
 38.7639	0.559401
 38.7739	0.55941
 38.7839	0.55942
 38.7939	0.559429
 38.8039	0.559438
 38.8139	0.559448
 38.8239	0.559457
 38.8339	0.559466
 38.8439	0.559476
 38.8539	0.559485
 38.8639	0.559495
 38.8739	0.559504
 38.8839	0.559513
 38.8939	0.559523
 38.9039	0.559532
 38.9139	0.559541
 38.9239	0.559551
 38.9339	0.55956
 38.9439	0.559569
 38.9539	0.559579
 38.9639	0.559588
 38.9739	0.559597
 38.9839	0.559607
 38.9939	0.559616
 39.0039	0.559625
 39.0139	0.559635
 39.0239	0.559644
 39.0339	0.559654
 39.0439	0.559663
 39.0539	0.559672
 39.0639	0.559682
 39.0739	0.559691
 39.0839	0.5597
 39.0939	0.55971
 39.1039	0.559719
 39.1139	0.559728
 39.1239	0.559738
 39.1339	0.559747
 39.1439	0.559756
 39.1539	0.559766
 39.1639	0.559775
 39.1739	0.559784
 39.1839	0.559794
 39.1939	0.559803
 39.2039	0.559813
 39.2139	0.559822
 39.2239	0.559831
 39.2339	0.559841
 39.2439	0.55985
 39.2539	0.559859
 39.2639	0.559869
 39.2739	0.559878
 39.2839	0.559887
 39.2939	0.559897
 39.3039	0.559906
 39.3139	0.559915
 39.3239	0.559925
 39.3339	0.559934
 39.3439	0.559944
 39.3539	0.559953
 39.3639	0.559962
 39.3739	0.559972
 39.3839	0.559981
 39.3939	0.55999
 39.4039	0.56
 39.4139	0.560009
 39.4239	0.560018
 39.4339	0.560028
 39.4439	0.560037
 39.4539	0.560046
 39.4639	0.560056
 39.4739	0.560065
 39.4839	0.560074
 39.4939	0.560084
 39.504	0.560093
 39.514	0.560103
 39.524	0.560112
 39.534	0.560121
 39.544	0.560131
 39.554	0.56014
 39.564	0.560149
 39.574	0.560159
 39.584	0.560168
 39.594	0.560177
 39.604	0.560187
 39.614	0.560196
 39.624	0.560205
 39.634	0.560215
 39.644	0.560224
 39.654	0.560233
 39.664	0.560243
 39.674	0.560252
 39.684	0.560262
 39.694	0.560271
 39.704	0.56028
 39.714	0.56029
 39.724	0.560299
 39.734	0.560308
 39.744	0.560318
 39.754	0.560327
 39.764	0.560336
 39.774	0.560346
 39.784	0.560355
 39.794	0.560364
 39.804	0.560374
 39.814	0.560383
 39.824	0.560392
 39.834	0.560402
 39.844	0.560411
 39.854	0.560421
 39.864	0.56043
 39.874	0.560439
 39.884	0.560449
 39.894	0.560458
 39.904	0.560467
 39.914	0.560477
 39.924	0.560486
 39.934	0.560495
 39.944	0.560505
 39.954	0.560514
 39.964	0.560523
 39.974	0.560533
 39.984	0.560542
 39.994	0.560551
 40.004	0.560557
 40.014	0.560557
 40.024	0.560557
 40.034	0.560557
 40.044	0.560557
 40.054	0.560557
 40.064	0.560557
 40.074	0.560557
 40.084	0.560557
 40.094	0.560557
 40.104	0.560557
 40.114	0.560557
 40.124	0.560557
 40.134	0.560557
 40.144	0.560557
 40.154	0.560557
 40.164	0.560557
 40.174	0.560557
 40.184	0.560557
 40.194	0.560557
 40.204	0.560557
 40.214	0.560557
 40.224	0.560557
 40.234	0.560557
 40.244	0.560557
 40.254	0.560557
 40.264	0.560557
 40.274	0.560557
 40.284	0.560557
 40.294	0.560557
 40.304	0.560557
 40.314	0.560557
 40.324	0.560557
 40.334	0.560557
 40.344	0.560557
 40.354	0.560557
 40.364	0.560557
 40.374	0.560557
 40.384	0.560557
 40.394	0.560557
 40.404	0.560557
 40.414	0.560557
 40.424	0.560557
 40.434	0.560557
 40.444	0.560557
 40.454	0.560557
 40.464	0.560557
 40.474	0.560557
 40.484	0.560557
 40.494	0.560557
 40.5041	0.560557
 40.5141	0.560557
 40.5241	0.560557
 40.5341	0.560557
 40.5441	0.560557
 40.5541	0.560557
 40.5641	0.560557
 40.5741	0.560557
 40.5841	0.560557
 40.5941	0.560557
 40.6041	0.560557
 40.6141	0.560557
 40.6241	0.560557
 40.6341	0.560557
 40.6441	0.560557
 40.6541	0.560557
 40.6641	0.560557
 40.6741	0.560557
 40.6841	0.560557
 40.6941	0.560557
 40.7041	0.560557
 40.7141	0.560557
 40.7241	0.560557
 40.7341	0.560557
 40.7441	0.560557
 40.7541	0.560557
 40.7641	0.560557
 40.7741	0.560557
 40.7841	0.560557
 40.7941	0.560557
 40.8041	0.560557
 40.8141	0.560557
 40.8241	0.560557
 40.8341	0.560557
 40.8441	0.560557
 40.8541	0.560557
 40.8641	0.560557
 40.8741	0.560557
 40.8841	0.560557
 40.8941	0.560557
 40.9041	0.560557
 40.9141	0.560557
 40.9241	0.560557
 40.9341	0.560557
 40.9441	0.560557
 40.9541	0.560557
 40.9641	0.560557
 40.9741	0.560557
 40.9841	0.560557
 40.9941	0.560557
 41.0041	0.560557
 41.0141	0.560557
 41.0241	0.560557
 41.0341	0.560557
 41.0441	0.560557
 41.0541	0.560557
 41.0641	0.560557
 41.0741	0.560557
 41.0841	0.560557
 41.0941	0.560557
 41.1041	0.560557
 41.1141	0.560557
 41.1241	0.560557
 41.1341	0.560557
 41.1441	0.560557
 41.1541	0.560557
 41.1641	0.560557
 41.1741	0.560557
 41.1841	0.560557
 41.1941	0.560557
 41.2041	0.560557
 41.2141	0.560557
 41.2241	0.560557
 41.2341	0.560557
 41.2441	0.560557
 41.2541	0.560557
 41.2641	0.560557
 41.2741	0.560557
 41.2841	0.560557
 41.2941	0.560557
 41.3041	0.560557
 41.3141	0.560557
 41.3241	0.560557
 41.3341	0.560557
 41.3441	0.560557
 41.3541	0.560557
 41.3641	0.560557
 41.3741	0.560557
 41.3841	0.560557
 41.3941	0.560557
 41.4041	0.560557
 41.4141	0.560557
 41.4241	0.560557
 41.4341	0.560557
 41.4441	0.560557
 41.4541	0.560557
 41.4641	0.560557
 41.4741	0.560557
 41.4841	0.560557
 41.4941	0.560557
 41.5042	0.560557
 41.5142	0.560557
 41.5242	0.560557
 41.5342	0.560557
 41.5442	0.560557
 41.5542	0.560557
 41.5642	0.560557
 41.5742	0.560557
 41.5842	0.560557
 41.5942	0.560557
 41.6042	0.560557
 41.6142	0.560557
 41.6242	0.560557
 41.6342	0.560557
 41.6442	0.560557
 41.6542	0.560557
 41.6642	0.560557
 41.6742	0.560557
 41.6842	0.560557
 41.6942	0.560557
 41.7042	0.560557
 41.7142	0.560557
 41.7242	0.560557
 41.7342	0.560557
 41.7442	0.560557
 41.7542	0.560557
 41.7642	0.560557
 41.7742	0.560557
 41.7842	0.560557
 41.7942	0.560557
 41.8042	0.560557
 41.8142	0.560557
 41.8242	0.560557
 41.8342	0.560557
 41.8442	0.560557
 41.8542	0.560557
 41.8642	0.560557
 41.8742	0.560557
 41.8842	0.560557
 41.8942	0.560557
 41.9042	0.560557
 41.9142	0.560557
 41.9242	0.560557
 41.9342	0.560557
 41.9442	0.560557
 41.9542	0.560557
 41.9642	0.560557
 41.9742	0.560557
 41.9842	0.560557
 41.9942	0.560557
 42.0042	0.560557
 42.0142	0.560557
 42.0242	0.560557
 42.0342	0.560557
 42.0442	0.560557
 42.0542	0.560557
 42.0642	0.560557
 42.0742	0.560557
 42.0842	0.560557
 42.0942	0.560557
 42.1042	0.560557
 42.1142	0.560557
 42.1242	0.560557
 42.1342	0.560557
 42.1442	0.560557
 42.1542	0.560557
 42.1642	0.560557
 42.1742	0.560557
 42.1842	0.560557
 42.1942	0.560557
 42.2042	0.560557
 42.2142	0.560557
 42.2242	0.560557
 42.2342	0.560557
 42.2442	0.560557
 42.2542	0.560557
 42.2642	0.560557
 42.2742	0.560557
 42.2842	0.560557
 42.2942	0.560557
 42.3042	0.560557
 42.3142	0.560557
 42.3242	0.560557
 42.3342	0.560557
 42.3442	0.560557
 42.3542	0.560557
 42.3642	0.560557
 42.3742	0.560557
 42.3842	0.560557
 42.3942	0.560557
 42.4042	0.560557
 42.4142	0.560557
 42.4242	0.560557
 42.4342	0.560557
 42.4442	0.560557
 42.4542	0.560557
 42.4642	0.560557
 42.4742	0.560557
 42.4842	0.560557
 42.4942	0.560557
 42.5043	0.560557
 42.5143	0.560557
 42.5243	0.560557
 42.5343	0.560557
 42.5443	0.560557
 42.5543	0.560557
 42.5643	0.560557
 42.5743	0.560557
 42.5843	0.560557
 42.5943	0.560557
 42.6043	0.560557
 42.6143	0.560557
 42.6243	0.560557
 42.6343	0.560557
 42.6443	0.560557
 42.6543	0.560557
 42.6643	0.560557
 42.6743	0.560557
 42.6843	0.560557
 42.6943	0.560557
 42.7043	0.560557
 42.7143	0.560557
 42.7243	0.560557
 42.7343	0.560557
 42.7443	0.560557
 42.7543	0.560557
 42.7643	0.560557
 42.7743	0.560557
 42.7843	0.560557
 42.7943	0.560557
 42.8043	0.560557
 42.8143	0.560557
 42.8243	0.560557
 42.8343	0.560557
 42.8443	0.560557
 42.8543	0.560557
 42.8643	0.560557
 42.8743	0.560557
 42.8843	0.560557
 42.8943	0.560557
 42.9043	0.560557
 42.9143	0.560557
 42.9243	0.560557
 42.9343	0.560557
 42.9443	0.560557
 42.9543	0.560557
 42.9643	0.560557
 42.9743	0.560557
 42.9843	0.560557
 42.9943	0.560557
 43.0043	0.560557
 43.0143	0.560557
 43.0243	0.560557
 43.0343	0.560557
 43.0443	0.560557
 43.0543	0.560557
 43.0643	0.560557
 43.0743	0.560557
 43.0843	0.560557
 43.0943	0.560557
 43.1043	0.560557
 43.1143	0.560557
 43.1243	0.560557
 43.1343	0.560557
 43.1443	0.560557
 43.1543	0.560557
 43.1643	0.560557
 43.1743	0.560557
 43.1843	0.560557
 43.1943	0.560557
 43.2043	0.560557
 43.2143	0.560557
 43.2243	0.560557
 43.2343	0.560557
 43.2443	0.560557
 43.2543	0.560557
 43.2643	0.560557
 43.2743	0.560557
 43.2843	0.560557
 43.2943	0.560557
 43.3043	0.560557
 43.3143	0.560557
 43.3243	0.560557
 43.3343	0.560557
 43.3443	0.560557
 43.3543	0.560557
 43.3643	0.560557
 43.3743	0.560557
 43.3843	0.560557
 43.3943	0.560557
 43.4043	0.560557
 43.4143	0.560557
 43.4243	0.560557
 43.4343	0.560557
 43.4443	0.560557
 43.4543	0.560557
 43.4643	0.560557
 43.4743	0.560557
 43.4843	0.560557
 43.4943	0.560557
 43.5044	0.560557
 43.5144	0.560557
 43.5244	0.560557
 43.5344	0.560557
 43.5444	0.560557
 43.5544	0.560557
 43.5644	0.560557
 43.5744	0.560557
 43.5844	0.560557
 43.5944	0.560557
 43.6044	0.560557
 43.6144	0.560557
 43.6244	0.560557
 43.6344	0.560557
 43.6444	0.560557
 43.6544	0.560557
 43.6644	0.560557
 43.6744	0.560557
 43.6844	0.560557
 43.6944	0.560557
 43.7044	0.560557
 43.7144	0.560557
 43.7244	0.560557
 43.7344	0.560557
 43.7444	0.560557
 43.7544	0.560557
 43.7644	0.560557
 43.7744	0.560557
 43.7844	0.560557
 43.7944	0.560557
 43.8044	0.560557
 43.8144	0.560557
 43.8244	0.560557
 43.8344	0.560557
 43.8444	0.560557
 43.8544	0.560557
 43.8644	0.560557
 43.8744	0.560557
 43.8844	0.560557
 43.8944	0.560557
 43.9044	0.560557
 43.9144	0.560557
 43.9244	0.560557
 43.9344	0.560557
 43.9444	0.560557
 43.9544	0.560557
 43.9644	0.560557
 43.9744	0.560557
 43.9844	0.560557
 43.9944	0.560557
 44.0044	0.560557
 44.0144	0.560557
 44.0244	0.560557
 44.0344	0.560557
 44.0444	0.560557
 44.0544	0.560557
 44.0644	0.560557
 44.0744	0.560557
 44.0844	0.560557
 44.0944	0.560557
 44.1044	0.560557
 44.1144	0.560557
 44.1244	0.560557
 44.1344	0.560557
 44.1444	0.560557
 44.1544	0.560557
 44.1644	0.560557
 44.1744	0.560557
 44.1844	0.560557
 44.1944	0.560557
 44.2044	0.560557
 44.2144	0.560557
 44.2244	0.560557
 44.2344	0.560557
 44.2444	0.560557
 44.2544	0.560557
 44.2644	0.560557
 44.2744	0.560557
 44.2844	0.560557
 44.2944	0.560557
 44.3044	0.560557
 44.3144	0.560557
 44.3244	0.560557
 44.3344	0.560557
 44.3444	0.560557
 44.3544	0.560557
 44.3644	0.560557
 44.3744	0.560557
 44.3844	0.560557
 44.3944	0.560557
 44.4044	0.560557
 44.4144	0.560557
 44.4244	0.560557
 44.4344	0.560557
 44.4444	0.560557
 44.4544	0.560557
 44.4644	0.560557
 44.4744	0.560557
 44.4844	0.560557
 44.4944	0.560557
 44.5045	0.560557
 44.5145	0.560557
 44.5245	0.560557
 44.5345	0.560557
 44.5445	0.560557
 44.5545	0.560557
 44.5645	0.560557
 44.5745	0.560557
 44.5845	0.560557
 44.5945	0.560557
 44.6045	0.560557
 44.6145	0.560557
 44.6245	0.560557
 44.6345	0.560557
 44.6445	0.560557
 44.6545	0.560557
 44.6645	0.560557
 44.6745	0.560557
 44.6845	0.560557
 44.6945	0.560557
 44.7045	0.560557
 44.7145	0.560557
 44.7245	0.560557
 44.7345	0.560557
 44.7445	0.560557
 44.7545	0.560557
 44.7645	0.560557
 44.7745	0.560557
 44.7845	0.560557
 44.7945	0.560557
 44.8045	0.560557
 44.8145	0.560557
 44.8245	0.560557
 44.8345	0.560557
 44.8445	0.560557
 44.8545	0.560557
 44.8645	0.560557
 44.8745	0.560557
 44.8845	0.560557
 44.8945	0.560557
 44.9045	0.560557
 44.9145	0.560557
 44.9245	0.560557
 44.9345	0.560557
 44.9445	0.560557
 44.9545	0.560557
 44.9645	0.560557
 44.9745	0.560557
 44.9845	0.560557
 44.9945	0.560557
 45.0045	0.560557
 45.0145	0.560557
 45.0245	0.560557
 45.0345	0.560557
 45.0445	0.560557
 45.0545	0.560557
 45.0645	0.560557
 45.0745	0.560557
 45.0845	0.560557
 45.0945	0.560557
 45.1045	0.560557
 45.1145	0.560557
 45.1245	0.560557
 45.1345	0.560557
 45.1445	0.560557
 45.1545	0.560557
 45.1645	0.560557
 45.1745	0.560557
 45.1845	0.560557
 45.1945	0.560557
 45.2045	0.560557
 45.2145	0.560557
 45.2245	0.560557
 45.2345	0.560557
 45.2445	0.560557
 45.2545	0.560557
 45.2645	0.560557
 45.2745	0.560557
 45.2845	0.560557
 45.2945	0.560557
 45.3045	0.560557
 45.3145	0.560557
 45.3245	0.560557
 45.3345	0.560557
 45.3445	0.560557
 45.3545	0.560557
 45.3645	0.560557
 45.3745	0.560557
 45.3845	0.560557
 45.3945	0.560557
 45.4045	0.560557
 45.4145	0.560557
 45.4245	0.560557
 45.4345	0.560557
 45.4445	0.560557
 45.4545	0.560557
 45.4645	0.560557
 45.4745	0.560557
 45.4845	0.560557
 45.4945	0.560557
 45.5046	0.560557
 45.5146	0.560557
 45.5246	0.560557
 45.5346	0.560557
 45.5446	0.560557
 45.5546	0.560557
 45.5646	0.560557
 45.5746	0.560557
 45.5846	0.560557
 45.5946	0.560557
 45.6046	0.560557
 45.6146	0.560557
 45.6246	0.560557
 45.6346	0.560557
 45.6446	0.560557
 45.6546	0.560557
 45.6646	0.560557
 45.6746	0.560557
 45.6846	0.560557
 45.6946	0.560557
 45.7046	0.560557
 45.7146	0.560557
 45.7246	0.560557
 45.7346	0.560557
 45.7446	0.560557
 45.7546	0.560557
 45.7646	0.560557
 45.7746	0.560557
 45.7846	0.560557
 45.7946	0.560557
 45.8046	0.560557
 45.8146	0.560557
 45.8246	0.560557
 45.8346	0.560557
 45.8446	0.560557
 45.8546	0.560557
 45.8646	0.560557
 45.8746	0.560557
 45.8846	0.560557
 45.8946	0.560557
 45.9046	0.560557
 45.9146	0.560557
 45.9246	0.560557
 45.9346	0.560557
 45.9446	0.560557
 45.9546	0.560557
 45.9646	0.560557
 45.9746	0.560557
 45.9846	0.560557
 45.9946	0.560557
 46.0046	0.560557
 46.0146	0.560557
 46.0246	0.560557
 46.0346	0.560557
 46.0446	0.560557
 46.0546	0.560557
 46.0646	0.560557
 46.0746	0.560557
 46.0846	0.560557
 46.0946	0.560557
 46.1046	0.560557
 46.1146	0.560557
 46.1246	0.560557
 46.1346	0.560557
 46.1446	0.560557
 46.1546	0.560557
 46.1646	0.560557
 46.1746	0.560557
 46.1846	0.560557
 46.1946	0.560557
 46.2046	0.560557
 46.2146	0.560557
 46.2246	0.560557
 46.2346	0.560557
 46.2446	0.560557
 46.2546	0.560557
 46.2646	0.560557
 46.2746	0.560557
 46.2846	0.560557
 46.2946	0.560557
 46.3046	0.560557
 46.3146	0.560557
 46.3246	0.560557
 46.3346	0.560557
 46.3446	0.560557
 46.3546	0.560557
 46.3646	0.560557
 46.3746	0.560557
 46.3846	0.560557
 46.3946	0.560557
 46.4046	0.560557
 46.4146	0.560557
 46.4246	0.560557
 46.4346	0.560557
 46.4446	0.560557
 46.4546	0.560557
 46.4646	0.560557
 46.4746	0.560557
 46.4846	0.560557
 46.4946	0.560557
 46.5047	0.560557
 46.5147	0.560557
 46.5247	0.560557
 46.5347	0.560557
 46.5447	0.560557
 46.5547	0.560557
 46.5647	0.560557
 46.5747	0.560557
 46.5847	0.560557
 46.5947	0.560557
 46.6047	0.560557
 46.6147	0.560557
 46.6247	0.560557
 46.6347	0.560557
 46.6447	0.560557
 46.6547	0.560557
 46.6647	0.560557
 46.6747	0.560557
 46.6847	0.560557
 46.6947	0.560557
 46.7047	0.560557
 46.7147	0.560557
 46.7247	0.560557
 46.7347	0.560557
 46.7447	0.560557
 46.7547	0.560557
 46.7647	0.560557
 46.7747	0.560557
 46.7847	0.560557
 46.7947	0.560557
 46.8047	0.560557
 46.8147	0.560557
 46.8247	0.560557
 46.8347	0.560557
 46.8447	0.560557
 46.8547	0.560557
 46.8647	0.560557
 46.8747	0.560557
 46.8847	0.560557
 46.8947	0.560557
 46.9047	0.560557
 46.9147	0.560557
 46.9247	0.560557
 46.9347	0.560557
 46.9447	0.560557
 46.9547	0.560557
 46.9647	0.560557
 46.9747	0.560557
 46.9847	0.560557
 46.9947	0.560557
 47.0047	0.560557
 47.0147	0.560557
 47.0247	0.560557
 47.0347	0.560557
 47.0447	0.560557
 47.0547	0.560557
 47.0647	0.560557
 47.0747	0.560557
 47.0847	0.560557
 47.0947	0.560557
 47.1047	0.560557
 47.1147	0.560557
 47.1247	0.560557
 47.1347	0.560557
 47.1447	0.560557
 47.1547	0.560557
 47.1647	0.560557
 47.1747	0.560557
 47.1847	0.560557
 47.1947	0.560557
 47.2047	0.560557
 47.2147	0.560557
 47.2247	0.560557
 47.2347	0.560557
 47.2447	0.560557
 47.2547	0.560557
 47.2647	0.560557
 47.2747	0.560557
 47.2847	0.560557
 47.2947	0.560557
 47.3047	0.560557
 47.3147	0.560557
 47.3247	0.560557
 47.3347	0.560557
 47.3447	0.560557
 47.3547	0.560557
 47.3647	0.560557
 47.3747	0.560557
 47.3847	0.560557
 47.3947	0.560557
 47.4047	0.560557
 47.4147	0.560557
 47.4247	0.560557
 47.4347	0.560557
 47.4447	0.560557
 47.4547	0.560557
 47.4647	0.560557
 47.4747	0.560557
 47.4847	0.560557
 47.4947	0.560557
 47.5048	0.560557
 47.5148	0.560557
 47.5248	0.560557
 47.5348	0.560557
 47.5448	0.560557
 47.5548	0.560557
 47.5648	0.560557
 47.5748	0.560557
 47.5848	0.560557
 47.5948	0.560557
 47.6048	0.560557
 47.6148	0.560557
 47.6248	0.560557
 47.6348	0.560557
 47.6448	0.560557
 47.6548	0.560557
 47.6648	0.560557
 47.6748	0.560557
 47.6848	0.560557
 47.6948	0.560557
 47.7048	0.560557
 47.7148	0.560557
 47.7248	0.560557
 47.7348	0.560557
 47.7448	0.560557
 47.7548	0.560557
 47.7648	0.560557
 47.7748	0.560557
 47.7848	0.560557
 47.7948	0.560557
 47.8048	0.560557
 47.8148	0.560557
 47.8248	0.560557
 47.8348	0.560557
 47.8448	0.560557
 47.8548	0.560557
 47.8648	0.560557
 47.8748	0.560557
 47.8848	0.560557
 47.8948	0.560557
 47.9048	0.560557
 47.9148	0.560557
 47.9248	0.560557
 47.9348	0.560557
 47.9448	0.560557
 47.9548	0.560557
 47.9648	0.560557
 47.9748	0.560557
 47.9848	0.560557
 47.9948	0.560557
 48.0048	0.560557
 48.0148	0.560557
 48.0248	0.560557
 48.0348	0.560557
 48.0448	0.560557
 48.0548	0.560557
 48.0648	0.560557
 48.0748	0.560557
 48.0848	0.560557
 48.0948	0.560557
 48.1048	0.560557
 48.1148	0.560557
 48.1248	0.560557
 48.1348	0.560557
 48.1448	0.560557
 48.1548	0.560557
 48.1648	0.560557
 48.1748	0.560557
 48.1848	0.560557
 48.1948	0.560557
 48.2048	0.560557
 48.2148	0.560557
 48.2248	0.560557
 48.2348	0.560557
 48.2448	0.560557
 48.2548	0.560557
 48.2648	0.560557
 48.2748	0.560557
 48.2848	0.560557
 48.2948	0.560557
 48.3048	0.560557
 48.3148	0.560557
 48.3248	0.560557
 48.3348	0.560557
 48.3448	0.560557
 48.3548	0.560557
 48.3648	0.560557
 48.3748	0.560557
 48.3848	0.560557
 48.3948	0.560557
 48.4048	0.560557
 48.4148	0.560557
 48.4248	0.560557
 48.4348	0.560557
 48.4448	0.560557
 48.4548	0.560557
 48.4648	0.560557
 48.4748	0.560557
 48.4848	0.560557
 48.4948	0.560557
 48.5049	0.560557
 48.5149	0.560557
 48.5249	0.560557
 48.5349	0.560557
 48.5449	0.560557
 48.5549	0.560557
 48.5649	0.560557
 48.5749	0.560557
 48.5849	0.560557
 48.5949	0.560557
 48.6049	0.560557
 48.6149	0.560557
 48.6249	0.560557
 48.6349	0.560557
 48.6449	0.560557
 48.6549	0.560557
 48.6649	0.560557
 48.6749	0.560557
 48.6849	0.560557
 48.6949	0.560557
 48.7049	0.560557
 48.7149	0.560557
 48.7249	0.560557
 48.7349	0.560557
 48.7449	0.560557
 48.7549	0.560557
 48.7649	0.560557
 48.7749	0.560557
 48.7849	0.560557
 48.7949	0.560557
 48.8049	0.560557
 48.8149	0.560557
 48.8249	0.560557
 48.8349	0.560557
 48.8449	0.560557
 48.8549	0.560557
 48.8649	0.560557
 48.8749	0.560557
 48.8849	0.560557
 48.8949	0.560557
 48.9049	0.560557
 48.9149	0.560557
 48.9249	0.560557
 48.9349	0.560557
 48.9449	0.560557
 48.9549	0.560557
 48.9649	0.560557
 48.9749	0.560557
 48.9849	0.560557
 48.9949	0.560557
 49.0049	0.560557
 49.0149	0.560557
 49.0249	0.560557
 49.0349	0.560557
 49.0449	0.560557
 49.0549	0.560557
 49.0649	0.560557
 49.0749	0.560557
 49.0849	0.560557
 49.0949	0.560557
 49.1049	0.560557
 49.1149	0.560557
 49.1249	0.560557
 49.1349	0.560557
 49.1449	0.560557
 49.1549	0.560557
 49.1649	0.560557
 49.1749	0.560557
 49.1849	0.560557
 49.1949	0.560557
 49.2049	0.560557
 49.2149	0.560557
 49.2249	0.560557
 49.2349	0.560557
 49.2449	0.560557
 49.2549	0.560557
 49.2649	0.560557
 49.2749	0.560557
 49.2849	0.560557
 49.2949	0.560557
 49.3049	0.560557
 49.3149	0.560557
 49.3249	0.560557
 49.3349	0.560557
 49.3449	0.560557
 49.3549	0.560557
 49.3649	0.560557
 49.3749	0.560557
 49.3849	0.560557
 49.3949	0.560557
 49.4049	0.560557
 49.4149	0.560557
 49.4249	0.560557
 49.4349	0.560557
 49.4449	0.560557
 49.4549	0.560557
 49.4649	0.560557
 49.4749	0.560557
 49.4849	0.560557
 49.4949	0.560557
 49.505	0.560557
 49.515	0.560557
 49.525	0.560557
 49.535	0.560557
 49.545	0.560557
 49.555	0.560557
 49.565	0.560557
 49.575	0.560557
 49.585	0.560557
 49.595	0.560557
 49.605	0.560557
 49.615	0.560557
 49.625	0.560557
 49.635	0.560557
 49.645	0.560557
 49.655	0.560557
 49.665	0.560557
 49.675	0.560557
 49.685	0.560557
 49.695	0.560557
 49.705	0.560557
 49.715	0.560557
 49.725	0.560557
 49.735	0.560557
 49.745	0.560557
 49.755	0.560557
 49.765	0.560557
 49.775	0.560557
 49.785	0.560557
 49.795	0.560557
 49.805	0.560557
 49.815	0.560557
 49.825	0.560557
 49.835	0.560557
 49.845	0.560557
 49.855	0.560557
 49.865	0.560557
 49.875	0.560557
 49.885	0.560557
 49.895	0.560557
 49.905	0.560557
 49.915	0.560557
 49.925	0.560557
 49.935	0.560557
 49.945	0.560557
 49.955	0.560557
 49.965	0.560557
 49.975	0.560557
 49.985	0.560557
 49.995	0.560557
 50.005	0.560557
 50.015	0.560557
 50.025	0.560557
 50.035	0.560557
 50.045	0.560557
 50.055	0.560557
 50.065	0.560557
 50.075	0.560557
 50.085	0.560557
 50.095	0.560557
 50.105	0.560557
 50.115	0.560557
 50.125	0.560557
 50.135	0.560557
 50.145	0.560557
 50.155	0.560557
 50.165	0.560557
 50.175	0.560557
 50.185	0.560557
 50.195	0.560557
 50.205	0.560557
 50.215	0.560557
 50.225	0.560557
 50.235	0.560557
 50.245	0.560557
 50.255	0.560557
 50.265	0.560557
 50.275	0.560557
 50.285	0.560557
 50.295	0.560557
 50.305	0.560557
 50.315	0.560557
 50.325	0.560557
 50.335	0.560557
 50.345	0.560557
 50.355	0.560557
 50.365	0.560557
 50.375	0.560557
 50.385	0.560557
 50.395	0.560557
 50.405	0.560557
 50.415	0.560557
 50.425	0.560557
 50.435	0.560557
 50.445	0.560557
 50.455	0.560557
 50.465	0.560557
 50.475	0.560557
 50.485	0.560557
 50.495	0.560557
 50.5051	0.560557
 50.5151	0.560557
 50.5251	0.560557
 50.5351	0.560557
 50.5451	0.560557
 50.5551	0.560557
 50.5651	0.560557
 50.5751	0.560557
 50.5851	0.560557
 50.5951	0.560557
 50.6051	0.560557
 50.6151	0.560557
 50.6251	0.560557
 50.6351	0.560557
 50.6451	0.560557
 50.6551	0.560557
 50.6651	0.560557
 50.6751	0.560557
 50.6851	0.560557
 50.6951	0.560557
 50.7051	0.560557
 50.7151	0.560557
 50.7251	0.560557
 50.7351	0.560557
 50.7451	0.560557
 50.7551	0.560557
 50.7651	0.560557
 50.7751	0.560557
 50.7851	0.560557
 50.7951	0.560557
 50.8051	0.560557
 50.8151	0.560557
 50.8251	0.560557
 50.8351	0.560557
 50.8451	0.560557
 50.8551	0.560557
 50.8651	0.560557
 50.8751	0.560557
 50.8851	0.560557
 50.8951	0.560557
 50.9051	0.560557
 50.9151	0.560557
 50.9251	0.560557
 50.9351	0.560557
 50.9451	0.560557
 50.9551	0.560557
 50.9651	0.560557
 50.9751	0.560557
 50.9851	0.560557
 50.9951	0.560557
 51.0051	0.560557
 51.0151	0.560557
 51.0251	0.560557
 51.0351	0.560557
 51.0451	0.560557
 51.0551	0.560557
 51.0651	0.560557
 51.0751	0.560557
 51.0851	0.560557
 51.0951	0.560557
 51.1051	0.560557
 51.1151	0.560557
 51.1251	0.560557
 51.1351	0.560557
 51.1451	0.560557
 51.1551	0.560557
 51.1651	0.560557
 51.1751	0.560557
 51.1851	0.560557
 51.1951	0.560557
 51.2051	0.560557
 51.2151	0.560557
 51.2251	0.560557
 51.2351	0.560557
 51.2451	0.560557
 51.2551	0.560557
 51.2651	0.560557
 51.2751	0.560557
 51.2851	0.560557
 51.2951	0.560557
 51.3051	0.560557
 51.3151	0.560557
 51.3251	0.560557
 51.3351	0.560557
 51.3451	0.560557
 51.3551	0.560557
 51.3651	0.560557
 51.3751	0.560557
 51.3851	0.560557
 51.3951	0.560557
 51.4051	0.560557
 51.4151	0.560557
 51.4251	0.560557
 51.4351	0.560557
 51.4451	0.560557
 51.4551	0.560557
 51.4651	0.560557
 51.4751	0.560557
 51.4851	0.560557
 51.4951	0.560557
 51.5052	0.560557
 51.5152	0.560557
 51.5252	0.560557
 51.5352	0.560557
 51.5452	0.560557
 51.5552	0.560557
 51.5652	0.560557
 51.5752	0.560557
 51.5852	0.560557
 51.5952	0.560557
 51.6052	0.560557
 51.6152	0.560557
 51.6252	0.560557
 51.6352	0.560557
 51.6452	0.560557
 51.6552	0.560557
 51.6652	0.560557
 51.6752	0.560557
 51.6852	0.560557
 51.6952	0.560557
 51.7052	0.560557
 51.7152	0.560557
 51.7252	0.560557
 51.7352	0.560557
 51.7452	0.560557
 51.7552	0.560557
 51.7652	0.560557
 51.7752	0.560557
 51.7852	0.560557
 51.7952	0.560557
 51.8052	0.560557
 51.8152	0.560557
 51.8252	0.560557
 51.8352	0.560557
 51.8452	0.560557
 51.8552	0.560557
 51.8652	0.560557
 51.8752	0.560557
 51.8852	0.560557
 51.8952	0.560557
 51.9052	0.560557
 51.9152	0.560557
 51.9252	0.560557
 51.9352	0.560557
 51.9452	0.560557
 51.9552	0.560557
 51.9652	0.560557
 51.9752	0.560557
 51.9852	0.560557
 51.9952	0.560557
 52.0052	0.560557
 52.0152	0.560557
 52.0252	0.560557
 52.0352	0.560557
 52.0452	0.560557
 52.0552	0.560557
 52.0652	0.560557
 52.0752	0.560557
 52.0852	0.560557
 52.0952	0.560557
 52.1052	0.560557
 52.1152	0.560557
 52.1252	0.560557
 52.1352	0.560557
 52.1452	0.560557
 52.1552	0.560557
 52.1652	0.560557
 52.1752	0.560557
 52.1852	0.560557
 52.1952	0.560557
 52.2052	0.560557
 52.2152	0.560557
 52.2252	0.560557
 52.2352	0.560557
 52.2452	0.560557
 52.2552	0.560557
 52.2652	0.560557
 52.2752	0.560557
 52.2852	0.560557
 52.2952	0.560557
 52.3052	0.560557
 52.3152	0.560557
 52.3252	0.560557
 52.3352	0.560557
 52.3452	0.560557
 52.3552	0.560557
 52.3652	0.560557
 52.3752	0.560557
 52.3852	0.560557
 52.3952	0.560557
 52.4052	0.560557
 52.4152	0.560557
 52.4252	0.560557
 52.4352	0.560557
 52.4452	0.560557
 52.4552	0.560557
 52.4652	0.560557
 52.4752	0.560557
 52.4852	0.560557
 52.4952	0.560557
 52.5053	0.560557
 52.5153	0.560557
 52.5253	0.560557
 52.5353	0.560557
 52.5453	0.560557
 52.5553	0.560557
 52.5653	0.560557
 52.5753	0.560557
 52.5853	0.560557
 52.5953	0.560557
 52.6053	0.560557
 52.6153	0.560557
 52.6253	0.560557
 52.6353	0.560557
 52.6453	0.560557
 52.6553	0.560557
 52.6653	0.560557
 52.6753	0.560557
 52.6853	0.560557
 52.6953	0.560557
 52.7053	0.560557
 52.7153	0.560557
 52.7253	0.560557
 52.7353	0.560557
 52.7453	0.560557
 52.7553	0.560557
 52.7653	0.560557
 52.7753	0.560557
 52.7853	0.560557
 52.7953	0.560557
 52.8053	0.560557
 52.8153	0.560557
 52.8253	0.560557
 52.8353	0.560557
 52.8453	0.560557
 52.8553	0.560557
 52.8653	0.560557
 52.8753	0.560557
 52.8853	0.560557
 52.8953	0.560557
 52.9053	0.560557
 52.9153	0.560557
 52.9253	0.560557
 52.9353	0.560557
 52.9453	0.560557
 52.9553	0.560557
 52.9653	0.560557
 52.9753	0.560557
 52.9853	0.560557
 52.9953	0.560557
 53.0053	0.560557
 53.0153	0.560557
 53.0253	0.560557
 53.0353	0.560557
 53.0453	0.560557
 53.0553	0.560557
 53.0653	0.560557
 53.0753	0.560557
 53.0853	0.560557
 53.0953	0.560557
 53.1053	0.560557
 53.1153	0.560557
 53.1253	0.560557
 53.1353	0.560557
 53.1453	0.560557
 53.1553	0.560557
 53.1653	0.560557
 53.1753	0.560557
 53.1853	0.560557
 53.1953	0.560557
 53.2053	0.560557
 53.2153	0.560557
 53.2253	0.560557
 53.2353	0.560557
 53.2453	0.560557
 53.2553	0.560557
 53.2653	0.560557
 53.2753	0.560557
 53.2853	0.560557
 53.2953	0.560557
 53.3053	0.560557
 53.3153	0.560557
 53.3253	0.560557
 53.3353	0.560557
 53.3453	0.560557
 53.3553	0.560557
 53.3653	0.560557
 53.3753	0.560557
 53.3853	0.560557
 53.3953	0.560557
 53.4053	0.560557
 53.4153	0.560557
 53.4253	0.560557
 53.4353	0.560557
 53.4453	0.560557
 53.4553	0.560557
 53.4653	0.560557
 53.4753	0.560557
 53.4853	0.560557
 53.4953	0.560557
 53.5054	0.560557
 53.5154	0.560557
 53.5254	0.560557
 53.5354	0.560557
 53.5454	0.560557
 53.5554	0.560557
 53.5654	0.560557
 53.5754	0.560557
 53.5854	0.560557
 53.5954	0.560557
 53.6054	0.560557
 53.6154	0.560557
 53.6254	0.560557
 53.6354	0.560557
 53.6454	0.560557
 53.6554	0.560557
 53.6654	0.560557
 53.6754	0.560557
 53.6854	0.560557
 53.6954	0.560557
 53.7054	0.560557
 53.7154	0.560557
 53.7254	0.560557
 53.7354	0.560557
 53.7454	0.560557
 53.7554	0.560557
 53.7654	0.560557
 53.7754	0.560557
 53.7854	0.560557
 53.7954	0.560557
 53.8054	0.560557
 53.8154	0.560557
 53.8254	0.560557
 53.8354	0.560557
 53.8454	0.560557
 53.8554	0.560557
 53.8654	0.560557
 53.8754	0.560557
 53.8854	0.560557
 53.8954	0.560557
 53.9054	0.560557
 53.9154	0.560557
 53.9254	0.560557
 53.9354	0.560557
 53.9454	0.560557
 53.9554	0.560557
 53.9654	0.560557
 53.9754	0.560557
 53.9854	0.560557
 53.9954	0.560557
 54.0054	0.560557
 54.0154	0.560557
 54.0254	0.560557
 54.0354	0.560557
 54.0454	0.560557
 54.0554	0.560557
 54.0654	0.560557
 54.0754	0.560557
 54.0854	0.560557
 54.0954	0.560557
 54.1054	0.560557
 54.1154	0.560557
 54.1254	0.560557
 54.1354	0.560557
 54.1454	0.560557
 54.1554	0.560557
 54.1654	0.560557
 54.1754	0.560557
 54.1854	0.560557
 54.1954	0.560557
 54.2054	0.560557
 54.2154	0.560557
 54.2254	0.560557
 54.2354	0.560557
 54.2454	0.560557
 54.2554	0.560557
 54.2654	0.560557
 54.2754	0.560557
 54.2854	0.560557
 54.2954	0.560557
 54.3054	0.560557
 54.3154	0.560557
 54.3254	0.560557
 54.3354	0.560557
 54.3454	0.560557
 54.3554	0.560557
 54.3654	0.560557
 54.3754	0.560557
 54.3854	0.560557
 54.3954	0.560557
 54.4054	0.560557
 54.4154	0.560557
 54.4254	0.560557
 54.4354	0.560557
 54.4454	0.560557
 54.4554	0.560557
 54.4654	0.560557
 54.4754	0.560557
 54.4854	0.560557
 54.4954	0.560557
 54.5055	0.560557
 54.5155	0.560557
 54.5255	0.560557
 54.5355	0.560557
 54.5455	0.560557
 54.5555	0.560557
 54.5655	0.560557
 54.5755	0.560557
 54.5855	0.560557
 54.5955	0.560557
 54.6055	0.560557
 54.6155	0.560557
 54.6255	0.560557
 54.6355	0.560557
 54.6455	0.560557
 54.6555	0.560557
 54.6655	0.560557
 54.6755	0.560557
 54.6855	0.560557
 54.6955	0.560557
 54.7055	0.560557
 54.7155	0.560557
 54.7255	0.560557
 54.7355	0.560557
 54.7455	0.560557
 54.7555	0.560557
 54.7655	0.560557
 54.7755	0.560557
 54.7855	0.560557
 54.7955	0.560557
 54.8055	0.560557
 54.8155	0.560557
 54.8255	0.560557
 54.8355	0.560557
 54.8455	0.560557
 54.8555	0.560557
 54.8655	0.560557
 54.8755	0.560557
 54.8855	0.560557
 54.8955	0.560557
 54.9055	0.560557
 54.9155	0.560557
 54.9255	0.560557
 54.9355	0.560557
 54.9455	0.560557
 54.9555	0.560557
 54.9655	0.560557
 54.9755	0.560557
 54.9855	0.560557
 54.9955	0.560557
 55.0055	0.560557
 55.0155	0.560557
 55.0255	0.560557
 55.0355	0.560557
 55.0455	0.560557
 55.0555	0.560557
 55.0655	0.560557
 55.0755	0.560557
 55.0855	0.560557
 55.0955	0.560557
 55.1055	0.560557
 55.1155	0.560557
 55.1255	0.560557
 55.1355	0.560557
 55.1455	0.560557
 55.1555	0.560557
 55.1655	0.560557
 55.1755	0.560557
 55.1855	0.560557
 55.1955	0.560557
 55.2055	0.560557
 55.2155	0.560557
 55.2255	0.560557
 55.2355	0.560557
 55.2455	0.560557
 55.2555	0.560557
 55.2655	0.560557
 55.2755	0.560557
 55.2855	0.560557
 55.2955	0.560557
 55.3055	0.560557
 55.3155	0.560557
 55.3255	0.560557
 55.3355	0.560557
 55.3455	0.560557
 55.3555	0.560557
 55.3655	0.560557
 55.3755	0.560557
 55.3855	0.560557
 55.3955	0.560557
 55.4055	0.560557
 55.4155	0.560557
 55.4255	0.560557
 55.4355	0.560557
 55.4455	0.560557
 55.4555	0.560557
 55.4655	0.560557
 55.4755	0.560557
 55.4855	0.560557
 55.4955	0.560557
 55.5056	0.560557
 55.5156	0.560557
 55.5256	0.560557
 55.5356	0.560557
 55.5456	0.560557
 55.5556	0.560557
 55.5656	0.560557
 55.5756	0.560557
 55.5856	0.560557
 55.5956	0.560557
 55.6056	0.560557
 55.6156	0.560557
 55.6256	0.560557
 55.6356	0.560557
 55.6456	0.560557
 55.6556	0.560557
 55.6656	0.560557
 55.6756	0.560557
 55.6856	0.560557
 55.6956	0.560557
 55.7056	0.560557
 55.7156	0.560557
 55.7256	0.560557
 55.7356	0.560557
 55.7456	0.560557
 55.7556	0.560557
 55.7656	0.560557
 55.7756	0.560557
 55.7856	0.560557
 55.7956	0.560557
 55.8056	0.560557
 55.8156	0.560557
 55.8256	0.560557
 55.8356	0.560557
 55.8456	0.560557
 55.8556	0.560557
 55.8656	0.560557
 55.8756	0.560557
 55.8856	0.560557
 55.8956	0.560557
 55.9056	0.560557
 55.9156	0.560557
 55.9256	0.560557
 55.9356	0.560557
 55.9456	0.560557
 55.9556	0.560557
 55.9656	0.560557
 55.9756	0.560557
 55.9856	0.560557
 55.9956	0.560557
 56.0056	0.560557
 56.0156	0.560557
 56.0256	0.560557
 56.0356	0.560557
 56.0456	0.560557
 56.0556	0.560557
 56.0656	0.560557
 56.0756	0.560557
 56.0856	0.560557
 56.0956	0.560557
 56.1056	0.560557
 56.1156	0.560557
 56.1256	0.560557
 56.1356	0.560557
 56.1456	0.560557
 56.1556	0.560557
 56.1656	0.560557
 56.1756	0.560557
 56.1856	0.560557
 56.1956	0.560557
 56.2056	0.560557
 56.2156	0.560557
 56.2256	0.560557
 56.2356	0.560557
 56.2456	0.560557
 56.2556	0.560557
 56.2656	0.560557
 56.2756	0.560557
 56.2856	0.560557
 56.2956	0.560557
 56.3056	0.560557
 56.3156	0.560557
 56.3256	0.560557
 56.3356	0.560557
 56.3456	0.560557
 56.3556	0.560557
 56.3656	0.560557
 56.3756	0.560557
 56.3856	0.560557
 56.3956	0.560557
 56.4056	0.560557
 56.4156	0.560557
 56.4256	0.560557
 56.4356	0.560557
 56.4456	0.560557
 56.4556	0.560557
 56.4656	0.560557
 56.4756	0.560557
 56.4856	0.560557
 56.4956	0.560557
 56.5057	0.560557
 56.5157	0.560557
 56.5257	0.560557
 56.5357	0.560557
 56.5457	0.560557
 56.5557	0.560557
 56.5657	0.560557
 56.5757	0.560557
 56.5857	0.560557
 56.5957	0.560557
 56.6057	0.560557
 56.6157	0.560557
 56.6257	0.560557
 56.6357	0.560557
 56.6457	0.560557
 56.6557	0.560557
 56.6657	0.560557
 56.6757	0.560557
 56.6857	0.560557
 56.6957	0.560557
 56.7057	0.560557
 56.7157	0.560557
 56.7257	0.560557
 56.7357	0.560557
 56.7457	0.560557
 56.7557	0.560557
 56.7657	0.560557
 56.7757	0.560557
 56.7857	0.560557
 56.7957	0.560557
 56.8057	0.560557
 56.8157	0.560557
 56.8257	0.560557
 56.8357	0.560557
 56.8457	0.560557
 56.8557	0.560557
 56.8657	0.560557
 56.8757	0.560557
 56.8857	0.560557
 56.8957	0.560557
 56.9057	0.560557
 56.9157	0.560557
 56.9257	0.560557
 56.9357	0.560557
 56.9457	0.560557
 56.9557	0.560557
 56.9657	0.560557
 56.9757	0.560557
 56.9857	0.560557
 56.9957	0.560557
 57.0057	0.560557
 57.0157	0.560557
 57.0257	0.560557
 57.0357	0.560557
 57.0457	0.560557
 57.0557	0.560557
 57.0657	0.560557
 57.0757	0.560557
 57.0857	0.560557
 57.0957	0.560557
 57.1057	0.560557
 57.1157	0.560557
 57.1257	0.560557
 57.1357	0.560557
 57.1457	0.560557
 57.1557	0.560557
 57.1657	0.560557
 57.1757	0.560557
 57.1857	0.560557
 57.1957	0.560557
 57.2057	0.560557
 57.2157	0.560557
 57.2257	0.560557
 57.2357	0.560557
 57.2457	0.560557
 57.2557	0.560557
 57.2657	0.560557
 57.2757	0.560557
 57.2857	0.560557
 57.2957	0.560557
 57.3057	0.560557
 57.3157	0.560557
 57.3257	0.560557
 57.3357	0.560557
 57.3457	0.560557
 57.3557	0.560557
 57.3657	0.560557
 57.3757	0.560557
 57.3857	0.560557
 57.3957	0.560557
 57.4057	0.560557
 57.4157	0.560557
 57.4257	0.560557
 57.4357	0.560557
 57.4457	0.560557
 57.4557	0.560557
 57.4657	0.560557
 57.4757	0.560557
 57.4857	0.560557
 57.4957	0.560557
 57.5058	0.560557
 57.5158	0.560557
 57.5258	0.560557
 57.5358	0.560557
 57.5458	0.560557
 57.5558	0.560557
 57.5658	0.560557
 57.5758	0.560557
 57.5858	0.560557
 57.5958	0.560557
 57.6058	0.560557
 57.6158	0.560557
 57.6258	0.560557
 57.6358	0.560557
 57.6458	0.560557
 57.6558	0.560557
 57.6658	0.560557
 57.6758	0.560557
 57.6858	0.560557
 57.6958	0.560557
 57.7058	0.560557
 57.7158	0.560557
 57.7258	0.560557
 57.7358	0.560557
 57.7458	0.560557
 57.7558	0.560557
 57.7658	0.560557
 57.7758	0.560557
 57.7858	0.560557
 57.7958	0.560557
 57.8058	0.560557
 57.8158	0.560557
 57.8258	0.560557
 57.8358	0.560557
 57.8458	0.560557
 57.8558	0.560557
 57.8658	0.560557
 57.8758	0.560557
 57.8858	0.560557
 57.8958	0.560557
 57.9058	0.560557
 57.9158	0.560557
 57.9258	0.560557
 57.9358	0.560557
 57.9458	0.560557
 57.9558	0.560557
 57.9658	0.560557
 57.9758	0.560557
 57.9858	0.560557
 57.9958	0.560557
 58.0058	0.560557
 58.0158	0.560557
 58.0258	0.560557
 58.0358	0.560557
 58.0458	0.560557
 58.0558	0.560557
 58.0658	0.560557
 58.0758	0.560557
 58.0858	0.560557
 58.0958	0.560557
 58.1058	0.560557
 58.1158	0.560557
 58.1258	0.560557
 58.1358	0.560557
 58.1458	0.560557
 58.1558	0.560557
 58.1658	0.560557
 58.1758	0.560557
 58.1858	0.560557
 58.1958	0.560557
 58.2058	0.560557
 58.2158	0.560557
 58.2258	0.560557
 58.2358	0.560557
 58.2458	0.560557
 58.2558	0.560557
 58.2658	0.560557
 58.2758	0.560557
 58.2858	0.560557
 58.2958	0.560557
 58.3058	0.560557
 58.3158	0.560557
 58.3258	0.560557
 58.3358	0.560557
 58.3458	0.560557
 58.3558	0.560557
 58.3658	0.560557
 58.3758	0.560557
 58.3858	0.560557
 58.3958	0.560557
 58.4058	0.560557
 58.4158	0.560557
 58.4258	0.560557
 58.4358	0.560557
 58.4458	0.560557
 58.4558	0.560557
 58.4658	0.560557
 58.4758	0.560557
 58.4858	0.560557
 58.4958	0.560557
 58.5059	0.560557
 58.5159	0.560557
 58.5259	0.560557
 58.5359	0.560557
 58.5459	0.560557
 58.5559	0.560557
 58.5659	0.560557
 58.5759	0.560557
 58.5859	0.560557
 58.5959	0.560557
 58.6059	0.560557
 58.6159	0.560557
 58.6259	0.560557
 58.6359	0.560557
 58.6459	0.560557
 58.6559	0.560557
 58.6659	0.560557
 58.6759	0.560557
 58.6859	0.560557
 58.6959	0.560557
 58.7059	0.560557
 58.7159	0.560557
 58.7259	0.560557
 58.7359	0.560557
 58.7459	0.560557
 58.7559	0.560557
 58.7659	0.560557
 58.7759	0.560557
 58.7859	0.560557
 58.7959	0.560557
 58.8059	0.560557
 58.8159	0.560557
 58.8259	0.560557
 58.8359	0.560557
 58.8459	0.560557
 58.8559	0.560557
 58.8659	0.560557
 58.8759	0.560557
 58.8859	0.560557
 58.8959	0.560557
 58.9059	0.560557
 58.9159	0.560557
 58.9259	0.560557
 58.9359	0.560557
 58.9459	0.560557
 58.9559	0.560557
 58.9659	0.560557
 58.9759	0.560557
 58.9859	0.560557
 58.9959	0.560557
 59.0059	0.560557
 59.0159	0.560557
 59.0259	0.560557
 59.0359	0.560557
 59.0459	0.560557
 59.0559	0.560557
 59.0659	0.560557
 59.0759	0.560557
 59.0859	0.560557
 59.0959	0.560557
 59.1059	0.560557
 59.1159	0.560557
 59.1259	0.560557
 59.1359	0.560557
 59.1459	0.560557
 59.1559	0.560557
 59.1659	0.560557
 59.1759	0.560557
 59.1859	0.560557
 59.1959	0.560557
 59.2059	0.560557
 59.2159	0.560557
 59.2259	0.560557
 59.2359	0.560557
 59.2459	0.560557
 59.2559	0.560557
 59.2659	0.560557
 59.2759	0.560557
 59.2859	0.560557
 59.2959	0.560557
 59.3059	0.560557
 59.3159	0.560557
 59.3259	0.560557
 59.3359	0.560557
 59.3459	0.560557
 59.3559	0.560557
 59.3659	0.560557
 59.3759	0.560557
 59.3859	0.560557
 59.3959	0.560557
 59.4059	0.560557
 59.4159	0.560557
 59.4259	0.560557
 59.4359	0.560557
 59.4459	0.560557
 59.4559	0.560557
 59.4659	0.560557
 59.4759	0.560557
 59.4859	0.560557
 59.4959	0.560557
 59.506	0.560557
 59.516	0.560557
 59.526	0.560557
 59.536	0.560557
 59.546	0.560557
 59.556	0.560557
 59.566	0.560557
 59.576	0.560557
 59.586	0.560557
 59.596	0.560557
 59.606	0.560557
 59.616	0.560557
 59.626	0.560557
 59.636	0.560557
 59.646	0.560557
 59.656	0.560557
 59.666	0.560557
 59.676	0.560557
 59.686	0.560557
 59.696	0.560557
 59.706	0.560557
 59.716	0.560557
 59.726	0.560557
 59.736	0.560557
 59.746	0.560557
 59.756	0.560557
 59.766	0.560557
 59.776	0.560557
 59.786	0.560557
 59.796	0.560557
 59.806	0.560557
 59.816	0.560557
 59.826	0.560557
 59.836	0.560557
 59.846	0.560557
 59.856	0.560557
 59.866	0.560557
 59.876	0.560557
 59.886	0.560557
 59.896	0.560557
 59.906	0.560557
 59.916	0.560557
 59.926	0.560557
 59.936	0.560557
 59.946	0.560557
 59.956	0.560557
 59.966	0.560557
 59.976	0.560557
 59.986	0.560557
 59.996	0.560557
 60.006	0.560557
 60.016	0.560557
 60.026	0.560557
 60.036	0.560557
 60.046	0.560557
 60.056	0.560557
 60.066	0.560557
 60.076	0.560557
 60.086	0.560557
 60.096	0.560557
 60.106	0.560557
 60.116	0.560557
 60.126	0.560557
 60.136	0.560557
 60.146	0.560557
 60.156	0.560557
 60.166	0.560557
 60.176	0.560557
 60.186	0.560557
 60.196	0.560557
 60.206	0.560557
 60.216	0.560557
 60.226	0.560557
 60.236	0.560557
 60.246	0.560557
 60.256	0.560557
 60.266	0.560557
 60.276	0.560557
 60.286	0.560557
 60.296	0.560557
 60.306	0.560557
 60.316	0.560557
 60.326	0.560557
 60.336	0.560557
 60.346	0.560557
 60.356	0.560557
 60.366	0.560557
 60.376	0.560557
 60.386	0.560557
 60.396	0.560557
 60.406	0.560557
 60.416	0.560557
 60.426	0.560557
 60.436	0.560557
 60.446	0.560557
 60.456	0.560557
 60.466	0.560557
 60.476	0.560557
 60.486	0.560557
 60.496	0.560557
 60.5061	0.560557
 60.5161	0.560557
 60.5261	0.560557
 60.5361	0.560557
 60.5461	0.560557
 60.5561	0.560557
 60.5661	0.560557
 60.5761	0.560557
 60.5861	0.560557
 60.5961	0.560557
 60.6061	0.560557
 60.6161	0.560557
 60.6261	0.560557
 60.6361	0.560557
 60.6461	0.560557
 60.6561	0.560557
 60.6661	0.560557
 60.6761	0.560557
 60.6861	0.560557
 60.6961	0.560557
 60.7061	0.560557
 60.7161	0.560557
 60.7261	0.560557
 60.7361	0.560557
 60.7461	0.560557
 60.7561	0.560557
 60.7661	0.560557
 60.7761	0.560557
 60.7861	0.560557
 60.7961	0.560557
 60.8061	0.560557
 60.8161	0.560557
 60.8261	0.560557
 60.8361	0.560557
 60.8461	0.560557
 60.8561	0.560557
 60.8661	0.560557
 60.8761	0.560557
 60.8861	0.560557
 60.8961	0.560557
 60.9061	0.560557
 60.9161	0.560557
 60.9261	0.560557
 60.9361	0.560557
 60.9461	0.560557
 60.9561	0.560557
 60.9661	0.560557
 60.9761	0.560557
 60.9861	0.560557
 60.9961	0.560557
 61.0061	0.560557
 61.0161	0.560557
 61.0261	0.560557
 61.0361	0.560557
 61.0461	0.560557
 61.0561	0.560557
 61.0661	0.560557
 61.0761	0.560557
 61.0861	0.560557
 61.0961	0.560557
 61.1061	0.560557
 61.1161	0.560557
 61.1261	0.560557
 61.1361	0.560557
 61.1461	0.560557
 61.1561	0.560557
 61.1661	0.560557
 61.1761	0.560557
 61.1861	0.560557
 61.1961	0.560557
 61.2061	0.560557
 61.2161	0.560557
 61.2261	0.560557
 61.2361	0.560557
 61.2461	0.560557
 61.2561	0.560557
 61.2661	0.560557
 61.2761	0.560557
 61.2861	0.560557
 61.2961	0.560557
 61.3061	0.560557
 61.3161	0.560557
 61.3261	0.560557
 61.3361	0.560557
 61.3461	0.560557
 61.3561	0.560557
 61.3661	0.560557
 61.3761	0.560557
 61.3861	0.560557
 61.3961	0.560557
 61.4061	0.560557
 61.4161	0.560557
 61.4261	0.560557
 61.4361	0.560557
 61.4461	0.560557
 61.4561	0.560557
 61.4661	0.560557
 61.4761	0.560557
 61.4861	0.560557
 61.4961	0.560557
 61.5062	0.560557
 61.5162	0.560557
 61.5262	0.560557
 61.5362	0.560557
 61.5462	0.560557
 61.5562	0.560557
 61.5662	0.560557
 61.5762	0.560557
 61.5862	0.560557
 61.5962	0.560557
 61.6062	0.560557
 61.6162	0.560557
 61.6262	0.560557
 61.6362	0.560557
 61.6462	0.560557
 61.6562	0.560557
 61.6662	0.560557
 61.6762	0.560557
 61.6862	0.560557
 61.6962	0.560557
 61.7062	0.560557
 61.7162	0.560557
 61.7262	0.560557
 61.7362	0.560557
 61.7462	0.560557
 61.7562	0.560557
 61.7662	0.560557
 61.7762	0.560557
 61.7862	0.560557
 61.7962	0.560557
 61.8062	0.560557
 61.8162	0.560557
 61.8262	0.560557
 61.8362	0.560557
 61.8462	0.560557
 61.8562	0.560557
 61.8662	0.560557
 61.8762	0.560557
 61.8862	0.560557
 61.8962	0.560557
 61.9062	0.560557
 61.9162	0.560557
 61.9262	0.560557
 61.9362	0.560557
 61.9462	0.560557
 61.9562	0.560557
 61.9662	0.560557
 61.9762	0.560557
 61.9862	0.560557
 61.9962	0.560557
 62.0062	0.560557
 62.0162	0.560557
 62.0262	0.560557
 62.0362	0.560557
 62.0462	0.560557
 62.0562	0.560557
 62.0662	0.560557
 62.0762	0.560557
 62.0862	0.560557
 62.0962	0.560557
 62.1062	0.560557
 62.1162	0.560557
 62.1262	0.560557
 62.1362	0.560557
 62.1462	0.560557
 62.1562	0.560557
 62.1662	0.560557
 62.1762	0.560557
 62.1862	0.560557
 62.1962	0.560557
 62.2062	0.560557
 62.2162	0.560557
 62.2262	0.560557
 62.2362	0.560557
 62.2462	0.560557
 62.2562	0.560557
 62.2662	0.560557
 62.2762	0.560557
 62.2862	0.560557
 62.2962	0.560557
 62.3062	0.560557
 62.3162	0.560557
 62.3262	0.560557
 62.3362	0.560557
 62.3462	0.560557
 62.3562	0.560557
 62.3662	0.560557
 62.3762	0.560557
 62.3862	0.560557
 62.3962	0.560557
 62.4062	0.560557
 62.4162	0.560557
 62.4262	0.560557
 62.4362	0.560557
 62.4462	0.560557
 62.4562	0.560557
 62.4662	0.560557
 62.4762	0.560557
 62.4862	0.560557
 62.4962	0.560557
 62.5063	0.560557
 62.5163	0.560557
 62.5263	0.560557
 62.5363	0.560557
 62.5463	0.560557
 62.5563	0.560557
 62.5663	0.560557
 62.5763	0.560557
 62.5863	0.560557
 62.5963	0.560557
 62.6063	0.560557
 62.6163	0.560557
 62.6263	0.560557
 62.6363	0.560557
 62.6463	0.560557
 62.6563	0.560557
 62.6663	0.560557
 62.6763	0.560557
 62.6863	0.560557
 62.6963	0.560557
 62.7063	0.560557
 62.7163	0.560557
 62.7263	0.560557
 62.7363	0.560557
 62.7463	0.560557
 62.7563	0.560557
 62.7663	0.560557
 62.7763	0.560557
 62.7863	0.560557
 62.7963	0.560557
 62.8063	0.560557
 62.8163	0.560557
 62.8263	0.560557
 62.8363	0.560557
 62.8463	0.560557
 62.8563	0.560557
 62.8663	0.560557
 62.8763	0.560557
 62.8863	0.560557
 62.8963	0.560557
 62.9063	0.560557
 62.9163	0.560557
 62.9263	0.560557
 62.9363	0.560557
 62.9463	0.560557
 62.9563	0.560557
 62.9663	0.560557
 62.9763	0.560557
 62.9863	0.560557
 62.9963	0.560557
 63.0063	0.560557
 63.0163	0.560557
 63.0263	0.560557
 63.0363	0.560557
 63.0463	0.560557
 63.0563	0.560557
 63.0663	0.560557
 63.0763	0.560557
 63.0863	0.560557
 63.0963	0.560557
 63.1063	0.560557
 63.1163	0.560557
 63.1263	0.560557
 63.1363	0.560557
 63.1463	0.560557
 63.1563	0.560557
 63.1663	0.560557
 63.1763	0.560557
 63.1863	0.560557
 63.1963	0.560557
 63.2063	0.560557
 63.2163	0.560557
 63.2263	0.560557
 63.2363	0.560557
 63.2463	0.560557
 63.2563	0.560557
 63.2663	0.560557
 63.2763	0.560557
 63.2863	0.560557
 63.2963	0.560557
 63.3063	0.560557
 63.3163	0.560557
 63.3263	0.560557
 63.3363	0.560557
 63.3463	0.560557
 63.3563	0.560557
 63.3663	0.560557
 63.3763	0.560557
 63.3863	0.560557
 63.3963	0.560557
 63.4063	0.560557
 63.4163	0.560557
 63.4263	0.560557
 63.4363	0.560557
 63.4463	0.560557
 63.4563	0.560557
 63.4663	0.560557
 63.4763	0.560557
 63.4863	0.560557
 63.4963	0.560557
 63.5064	0.560557
 63.5164	0.560557
 63.5264	0.560557
 63.5364	0.560557
 63.5464	0.560557
 63.5564	0.560557
 63.5664	0.560557
 63.5764	0.560557
 63.5864	0.560557
 63.5964	0.560557
 63.6064	0.560557
 63.6164	0.560557
 63.6264	0.560557
 63.6364	0.560557
 63.6464	0.560557
 63.6564	0.560557
 63.6664	0.560557
 63.6764	0.560557
 63.6864	0.560557
 63.6964	0.560557
 63.7064	0.560557
 63.7164	0.560557
 63.7264	0.560557
 63.7364	0.560557
 63.7464	0.560557
 63.7564	0.560557
 63.7664	0.560557
 63.7764	0.560557
 63.7864	0.560557
 63.7964	0.560557
 63.8064	0.560557
 63.8164	0.560557
 63.8264	0.560557
 63.8364	0.560557
 63.8464	0.560557
 63.8564	0.560557
 63.8664	0.560557
 63.8764	0.560557
 63.8864	0.560557
 63.8964	0.560557
 63.9064	0.560557
 63.9164	0.560557
 63.9264	0.560557
 63.9364	0.560557
 63.9464	0.560557
 63.9564	0.560557
 63.9664	0.560557
 63.9764	0.560557
 63.9864	0.560557
 63.9964	0.560557
 64.0064	0.560557
 64.0164	0.560557
 64.0264	0.560557
 64.0364	0.560557
 64.0464	0.560557
 64.0564	0.560557
 64.0664	0.560557
 64.0764	0.560557
 64.0864	0.560557
 64.0964	0.560557
 64.1064	0.560557
 64.1164	0.560557
 64.1264	0.560557
 64.1364	0.560557
 64.1464	0.560557
 64.1564	0.560557
 64.1664	0.560557
 64.1764	0.560557
 64.1864	0.560557
 64.1964	0.560557
 64.2064	0.560557
 64.2164	0.560557
 64.2264	0.560557
 64.2364	0.560557
 64.2464	0.560557
 64.2564	0.560557
 64.2664	0.560557
 64.2764	0.560557
 64.2864	0.560557
 64.2964	0.560557
 64.3064	0.560557
 64.3164	0.560557
 64.3264	0.560557
 64.3364	0.560557
 64.3464	0.560557
 64.3564	0.560557
 64.3664	0.560557
 64.3764	0.560557
 64.3864	0.560557
 64.3964	0.560557
 64.4064	0.560557
 64.4164	0.560557
 64.4264	0.560557
 64.4364	0.560557
 64.4464	0.560557
 64.4564	0.560557
 64.4664	0.560557
 64.4764	0.560557
 64.4864	0.560557
 64.4964	0.560557
 64.5065	0.560557
 64.5165	0.560557
 64.5265	0.560557
 64.5365	0.560557
 64.5465	0.560557
 64.5565	0.560557
 64.5665	0.560557
 64.5765	0.560557
 64.5865	0.560557
 64.5965	0.560557
 64.6065	0.560557
 64.6165	0.560557
 64.6265	0.560557
 64.6365	0.560557
 64.6465	0.560557
 64.6565	0.560557
 64.6665	0.560557
 64.6765	0.560557
 64.6865	0.560557
 64.6965	0.560557
 64.7065	0.560557
 64.7165	0.560557
 64.7265	0.560557
 64.7365	0.560557
 64.7465	0.560557
 64.7565	0.560557
 64.7665	0.560557
 64.7765	0.560557
 64.7865	0.560557
 64.7965	0.560557
 64.8065	0.560557
 64.8165	0.560557
 64.8265	0.560557
 64.8365	0.560557
 64.8465	0.560557
 64.8565	0.560557
 64.8665	0.560557
 64.8765	0.560557
 64.8865	0.560557
 64.8965	0.560557
 64.9065	0.560557
 64.9165	0.560557
 64.9265	0.560557
 64.9365	0.560557
 64.9465	0.560557
 64.9565	0.560557
 64.9665	0.560557
 64.9765	0.560557
 64.9865	0.560557
 64.9965	0.560557
 65.0065	0.560557
 65.0165	0.560557
 65.0265	0.560557
 65.0365	0.560557
 65.0465	0.560557
 65.0565	0.560557
 65.0665	0.560557
 65.0765	0.560557
 65.0865	0.560557
 65.0965	0.560557
 65.1065	0.560557
 65.1165	0.560557
 65.1265	0.560557
 65.1365	0.560557
 65.1465	0.560557
 65.1565	0.560557
 65.1665	0.560557
 65.1765	0.560557
 65.1865	0.560557
 65.1965	0.560557
 65.2065	0.560557
 65.2165	0.560557
 65.2265	0.560557
 65.2365	0.560557
 65.2465	0.560557
 65.2565	0.560557
 65.2665	0.560557
 65.2765	0.560557
 65.2865	0.560557
 65.2965	0.560557
 65.3065	0.560557
 65.3165	0.560557
 65.3265	0.560557
 65.3365	0.560557
 65.3465	0.560557
 65.3565	0.560557
 65.3665	0.560557
 65.3765	0.560557
 65.3865	0.560557
 65.3965	0.560557
 65.4065	0.560557
 65.4165	0.560557
 65.4265	0.560557
 65.4365	0.560557
 65.4465	0.560557
 65.4565	0.560557
 65.4665	0.560557
 65.4765	0.560557
 65.4865	0.560557
 65.4965	0.560557
 65.5066	0.560557
 65.5166	0.560557
 65.5266	0.560557
 65.5366	0.560557
 65.5466	0.560557
 65.5566	0.560557
 65.5666	0.560557
 65.5766	0.560557
 65.5866	0.560557
 65.5966	0.560557
 65.6066	0.560557
 65.6166	0.560557
 65.6266	0.560557
 65.6366	0.560557
 65.6466	0.560557
 65.6566	0.560557
 65.6666	0.560557
 65.6766	0.560557
 65.6866	0.560557
 65.6966	0.560557
 65.7066	0.560557
 65.7166	0.560557
 65.7266	0.560557
 65.7366	0.560557
 65.7466	0.560557
 65.7566	0.560557
 65.7666	0.560557
 65.7766	0.560557
 65.7866	0.560557
 65.7966	0.560557
 65.8066	0.560557
 65.8166	0.560557
 65.8266	0.560557
 65.8366	0.560557
 65.8466	0.560557
 65.8566	0.560557
 65.8666	0.560557
 65.8766	0.560557
 65.8866	0.560557
 65.8966	0.560557
 65.9066	0.560557
 65.9166	0.560557
 65.9266	0.560557
 65.9366	0.560557
 65.9466	0.560557
 65.9566	0.560557
 65.9666	0.560557
 65.9766	0.560557
 65.9866	0.560557
 65.9966	0.560557
 66.0066	0.560557
 66.0166	0.560557
 66.0266	0.560557
 66.0366	0.560557
 66.0466	0.560557
 66.0566	0.560557
 66.0666	0.560557
 66.0766	0.560557
 66.0866	0.560557
 66.0966	0.560557
 66.1066	0.560557
 66.1166	0.560557
 66.1266	0.560557
 66.1366	0.560557
 66.1466	0.560557
 66.1566	0.560557
 66.1666	0.560557
 66.1766	0.560557
 66.1866	0.560557
 66.1966	0.560557
 66.2066	0.560557
 66.2166	0.560557
 66.2266	0.560557
 66.2366	0.560557
 66.2466	0.560557
 66.2566	0.560557
 66.2666	0.560557
 66.2766	0.560557
 66.2866	0.560557
 66.2966	0.560557
 66.3066	0.560557
 66.3166	0.560557
 66.3266	0.560557
 66.3366	0.560557
 66.3466	0.560557
 66.3566	0.560557
 66.3666	0.560557
 66.3766	0.560557
 66.3866	0.560557
 66.3966	0.560557
 66.4066	0.560557
 66.4166	0.560557
 66.4266	0.560557
 66.4366	0.560557
 66.4466	0.560557
 66.4566	0.560557
 66.4666	0.560557
 66.4766	0.560557
 66.4866	0.560557
 66.4966	0.560557
 66.5067	0.560557
 66.5167	0.560557
 66.5267	0.560557
 66.5367	0.560557
 66.5467	0.560557
 66.5567	0.560557
 66.5667	0.560557
 66.5767	0.560557
 66.5867	0.560557
 66.5967	0.560557
 66.6067	0.560557
 66.6167	0.560557
 66.6267	0.560557
 66.6367	0.560557
 66.6467	0.560557
 66.6567	0.560557
 66.6667	0.560557
 66.6767	0.560557
 66.6867	0.560557
 66.6967	0.560557
 66.7067	0.560557
 66.7167	0.560557
 66.7267	0.560557
 66.7367	0.560557
 66.7467	0.560557
 66.7567	0.560557
 66.7667	0.560557
 66.7767	0.560557
 66.7867	0.560557
 66.7967	0.560557
 66.8067	0.560557
 66.8167	0.560557
 66.8267	0.560557
 66.8367	0.560557
 66.8467	0.560557
 66.8567	0.560557
 66.8667	0.560557
 66.8767	0.560557
 66.8867	0.560557
 66.8967	0.560557
 66.9067	0.560557
 66.9167	0.560557
 66.9267	0.560557
 66.9367	0.560557
 66.9467	0.560557
 66.9567	0.560557
 66.9667	0.560557
 66.9767	0.560557
 66.9867	0.560557
 66.9967	0.560557
 67.0067	0.560557
 67.0167	0.560557
 67.0267	0.560557
 67.0367	0.560557
 67.0467	0.560557
 67.0567	0.560557
 67.0667	0.560557
 67.0767	0.560557
 67.0867	0.560557
 67.0967	0.560557
 67.1067	0.560557
 67.1167	0.560557
 67.1267	0.560557
 67.1367	0.560557
 67.1467	0.560557
 67.1567	0.560557
 67.1667	0.560557
 67.1767	0.560557
 67.1867	0.560557
 67.1967	0.560557
 67.2067	0.560557
 67.2167	0.560557
 67.2267	0.560557
 67.2367	0.560557
 67.2467	0.560557
 67.2567	0.560557
 67.2667	0.560557
 67.2767	0.560557
 67.2867	0.560557
 67.2967	0.560557
 67.3067	0.560557
 67.3167	0.560557
 67.3267	0.560557
 67.3367	0.560557
 67.3467	0.560557
 67.3567	0.560557
 67.3667	0.560557
 67.3767	0.560557
 67.3867	0.560557
 67.3967	0.560557
 67.4067	0.560557
 67.4167	0.560557
 67.4267	0.560557
 67.4367	0.560557
 67.4467	0.560557
 67.4567	0.560557
 67.4667	0.560557
 67.4767	0.560557
 67.4867	0.560557
 67.4967	0.560557
 67.5068	0.560557
 67.5168	0.560557
 67.5268	0.560557
 67.5368	0.560557
 67.5468	0.560557
 67.5568	0.560557
 67.5668	0.560557
 67.5768	0.560557
 67.5868	0.560557
 67.5968	0.560557
 67.6068	0.560557
 67.6168	0.560557
 67.6268	0.560557
 67.6368	0.560557
 67.6468	0.560557
 67.6568	0.560557
 67.6668	0.560557
 67.6768	0.560557
 67.6868	0.560557
 67.6968	0.560557
 67.7068	0.560557
 67.7168	0.560557
 67.7268	0.560557
 67.7368	0.560557
 67.7468	0.560557
 67.7568	0.560557
 67.7668	0.560557
 67.7768	0.560557
 67.7868	0.560557
 67.7968	0.560557
 67.8068	0.560557
 67.8168	0.560557
 67.8268	0.560557
 67.8368	0.560557
 67.8468	0.560557
 67.8568	0.560557
 67.8668	0.560557
 67.8768	0.560557
 67.8868	0.560557
 67.8968	0.560557
 67.9068	0.560557
 67.9168	0.560557
 67.9268	0.560557
 67.9368	0.560557
 67.9468	0.560557
 67.9568	0.560557
 67.9668	0.560557
 67.9768	0.560557
 67.9868	0.560557
 67.9968	0.560557
 68.0068	0.560557
 68.0168	0.560557
 68.0268	0.560557
 68.0368	0.560557
 68.0468	0.560557
 68.0568	0.560557
 68.0668	0.560557
 68.0768	0.560557
 68.0868	0.560557
 68.0968	0.560557
 68.1068	0.560557
 68.1168	0.560557
 68.1268	0.560557
 68.1368	0.560557
 68.1468	0.560557
 68.1568	0.560557
 68.1668	0.560557
 68.1768	0.560557
 68.1868	0.560557
 68.1968	0.560557
 68.2068	0.560557
 68.2168	0.560557
 68.2268	0.560557
 68.2368	0.560557
 68.2468	0.560557
 68.2568	0.560557
 68.2668	0.560557
 68.2768	0.560557
 68.2868	0.560557
 68.2968	0.560557
 68.3068	0.560557
 68.3168	0.560557
 68.3268	0.560557
 68.3368	0.560557
 68.3468	0.560557
 68.3568	0.560557
 68.3668	0.560557
 68.3768	0.560557
 68.3868	0.560557
 68.3968	0.560557
 68.4068	0.560557
 68.4168	0.560557
 68.4268	0.560557
 68.4368	0.560557
 68.4468	0.560557
 68.4568	0.560557
 68.4668	0.560557
 68.4768	0.560557
 68.4868	0.560557
 68.4968	0.560557
 68.5069	0.560557
 68.5169	0.560557
 68.5269	0.560557
 68.5369	0.560557
 68.5469	0.560557
 68.5569	0.560557
 68.5669	0.560557
 68.5769	0.560557
 68.5869	0.560557
 68.5969	0.560557
 68.6069	0.560557
 68.6169	0.560557
 68.6269	0.560557
 68.6369	0.560557
 68.6469	0.560557
 68.6569	0.560557
 68.6669	0.560557
 68.6769	0.560557
 68.6869	0.560557
 68.6969	0.560557
 68.7069	0.560557
 68.7169	0.560557
 68.7269	0.560557
 68.7369	0.560557
 68.7469	0.560557
 68.7569	0.560557
 68.7669	0.560557
 68.7769	0.560557
 68.7869	0.560557
 68.7969	0.560557
 68.8069	0.560557
 68.8169	0.560557
 68.8269	0.560557
 68.8369	0.560557
 68.8469	0.560557
 68.8569	0.560557
 68.8669	0.560557
 68.8769	0.560557
 68.8869	0.560557
 68.8969	0.560557
 68.9069	0.560557
 68.9169	0.560557
 68.9269	0.560557
 68.9369	0.560557
 68.9469	0.560557
 68.9569	0.560557
 68.9669	0.560557
 68.9769	0.560557
 68.9869	0.560557
 68.9969	0.560557
 69.0069	0.560557
 69.0169	0.560557
 69.0269	0.560557
 69.0369	0.560557
 69.0469	0.560557
 69.0569	0.560557
 69.0669	0.560557
 69.0769	0.560557
 69.0869	0.560557
 69.0969	0.560557
 69.1069	0.560557
 69.1169	0.560557
 69.1269	0.560557
 69.1369	0.560557
 69.1469	0.560557
 69.1569	0.560557
 69.1669	0.560557
 69.1769	0.560557
 69.1869	0.560557
 69.1969	0.560557
 69.2069	0.560557
 69.2169	0.560557
 69.2269	0.560557
 69.2369	0.560557
 69.2469	0.560557
 69.2569	0.560557
 69.2669	0.560557
 69.2769	0.560557
 69.2869	0.560557
 69.2969	0.560557
 69.3069	0.560557
 69.3169	0.560557
 69.3269	0.560557
 69.3369	0.560557
 69.3469	0.560557
 69.3569	0.560557
 69.3669	0.560557
 69.3769	0.560557
 69.3869	0.560557
 69.3969	0.560557
 69.4069	0.560557
 69.4169	0.560557
 69.4269	0.560557
 69.4369	0.560557
 69.4469	0.560557
 69.4569	0.560557
 69.4669	0.560557
 69.4769	0.560557
 69.4869	0.560557
 69.4969	0.560557
 69.507	0.560557
 69.517	0.560557
 69.527	0.560557
 69.537	0.560557
 69.547	0.560557
 69.557	0.560557
 69.567	0.560557
 69.577	0.560557
 69.587	0.560557
 69.597	0.560557
 69.607	0.560557
 69.617	0.560557
 69.627	0.560557
 69.637	0.560557
 69.647	0.560557
 69.657	0.560557
 69.667	0.560557
 69.677	0.560557
 69.687	0.560557
 69.697	0.560557
 69.707	0.560557
 69.717	0.560557
 69.727	0.560557
 69.737	0.560557
 69.747	0.560557
 69.757	0.560557
 69.767	0.560557
 69.777	0.560557
 69.787	0.560557
 69.797	0.560557
 69.807	0.560557
 69.817	0.560557
 69.827	0.560557
 69.837	0.560557
 69.847	0.560557
 69.857	0.560557
 69.867	0.560557
 69.877	0.560557
 69.887	0.560557
 69.897	0.560557
 69.907	0.560557
 69.917	0.560557
 69.927	0.560557
 69.937	0.560557
 69.947	0.560557
 69.957	0.560557
 69.967	0.560557
 69.977	0.560557
 69.987	0.560557
 69.997	0.560557
 70.007	0.560557
 70.017	0.560557
 70.027	0.560557
 70.037	0.560557
 70.047	0.560557
 70.057	0.560557
 70.067	0.560557
 70.077	0.560557
 70.087	0.560557
 70.097	0.560557
 70.107	0.560557
 70.117	0.560557
 70.127	0.560557
 70.137	0.560557
 70.147	0.560557
 70.157	0.560557
 70.167	0.560557
 70.177	0.560557
 70.187	0.560557
 70.197	0.560557
 70.207	0.560557
 70.217	0.560557
 70.227	0.560557
 70.237	0.560557
 70.247	0.560557
 70.257	0.560557
 70.267	0.560557
 70.277	0.560557
 70.287	0.560557
 70.297	0.560557
 70.307	0.560557
 70.317	0.560557
 70.327	0.560557
 70.337	0.560557
 70.347	0.560557
 70.357	0.560557
 70.367	0.560557
 70.377	0.560557
 70.387	0.560557
 70.397	0.560557
 70.407	0.560557
 70.417	0.560557
 70.427	0.560557
 70.437	0.560557
 70.447	0.560557
 70.457	0.560557
 70.467	0.560557
 70.477	0.560557
 70.487	0.560557
 70.497	0.560557
 70.5071	0.560557
 70.5171	0.560557
 70.5271	0.560557
 70.5371	0.560557
 70.5471	0.560557
 70.5571	0.560557
 70.5671	0.560557
 70.5771	0.560557
 70.5871	0.560557
 70.5971	0.560557
 70.6071	0.560557
 70.6171	0.560557
 70.6271	0.560557
 70.6371	0.560557
 70.6471	0.560557
 70.6571	0.560557
 70.6671	0.560557
 70.6771	0.560557
 70.6871	0.560557
 70.6971	0.560557
 70.7071	0.560557
 70.7171	0.560557
 70.7271	0.560557
 70.7371	0.560557
 70.7471	0.560557
 70.7571	0.560557
 70.7671	0.560557
 70.7771	0.560557
 70.7871	0.560557
 70.7971	0.560557
 70.8071	0.560557
 70.8171	0.560557
 70.8271	0.560557
 70.8371	0.560557
 70.8471	0.560557
 70.8571	0.560557
 70.8671	0.560557
 70.8771	0.560557
 70.8871	0.560557
 70.8971	0.560557
 70.9071	0.560557
 70.9171	0.560557
 70.9271	0.560557
 70.9371	0.560557
 70.9471	0.560557
 70.9571	0.560557
 70.9671	0.560557
 70.9771	0.560557
 70.9871	0.560557
 70.9971	0.560557
 71.0071	0.560557
 71.0171	0.560557
 71.0271	0.560557
 71.0371	0.560557
 71.0471	0.560557
 71.0571	0.560557
 71.0671	0.560557
 71.0771	0.560557
 71.0871	0.560557
 71.0971	0.560557
 71.1071	0.560557
 71.1171	0.560557
 71.1271	0.560557
 71.1371	0.560557
 71.1471	0.560557
 71.1571	0.560557
 71.1671	0.560557
 71.1771	0.560557
 71.1871	0.560557
 71.1971	0.560557
 71.2071	0.560557
 71.2171	0.560557
 71.2271	0.560557
 71.2371	0.560557
 71.2471	0.560557
 71.2571	0.560557
 71.2671	0.560557
 71.2771	0.560557
 71.2871	0.560557
 71.2971	0.560557
 71.3071	0.560557
 71.3171	0.560557
 71.3271	0.560557
 71.3371	0.560557
 71.3471	0.560557
 71.3571	0.560557
 71.3671	0.560557
 71.3771	0.560557
 71.3871	0.560557
 71.3971	0.560557
 71.4071	0.560557
 71.4171	0.560557
 71.4271	0.560557
 71.4371	0.560557
 71.4471	0.560557
 71.4571	0.560557
 71.4671	0.560557
 71.4771	0.560557
 71.4871	0.560557
 71.4971	0.560557
 71.5072	0.560557
 71.5172	0.560557
 71.5272	0.560557
 71.5372	0.560557
 71.5472	0.560557
 71.5572	0.560557
 71.5672	0.560557
 71.5772	0.560557
 71.5872	0.560557
 71.5972	0.560557
 71.6072	0.560557
 71.6172	0.560557
 71.6272	0.560557
 71.6372	0.560557
 71.6472	0.560557
 71.6572	0.560557
 71.6672	0.560557
 71.6772	0.560557
 71.6872	0.560557
 71.6972	0.560557
 71.7072	0.560557
 71.7172	0.560557
 71.7272	0.560557
 71.7372	0.560557
 71.7472	0.560557
 71.7572	0.560557
 71.7672	0.560557
 71.7772	0.560557
 71.7872	0.560557
 71.7972	0.560557
 71.8072	0.560557
 71.8172	0.560557
 71.8272	0.560557
 71.8372	0.560557
 71.8472	0.560557
 71.8572	0.560557
 71.8672	0.560557
 71.8772	0.560557
 71.8872	0.560557
 71.8972	0.560557
 71.9072	0.560557
 71.9172	0.560557
 71.9272	0.560557
 71.9372	0.560557
 71.9472	0.560557
 71.9572	0.560557
 71.9672	0.560557
 71.9772	0.560557
 71.9872	0.560557
 71.9972	0.560557
 72.0072	0.560557
 72.0172	0.560557
 72.0272	0.560557
 72.0372	0.560557
 72.0472	0.560557
 72.0572	0.560557
 72.0672	0.560557
 72.0772	0.560557
 72.0872	0.560557
 72.0972	0.560557
 72.1072	0.560557
 72.1172	0.560557
 72.1272	0.560557
 72.1372	0.560557
 72.1472	0.560557
 72.1572	0.560557
 72.1672	0.560557
 72.1772	0.560557
 72.1872	0.560557
 72.1972	0.560557
 72.2072	0.560557
 72.2172	0.560557
 72.2272	0.560557
 72.2372	0.560557
 72.2472	0.560557
 72.2572	0.560557
 72.2672	0.560557
 72.2772	0.560557
 72.2872	0.560557
 72.2972	0.560557
 72.3072	0.560557
 72.3172	0.560557
 72.3272	0.560557
 72.3372	0.560557
 72.3472	0.560557
 72.3572	0.560557
 72.3672	0.560557
 72.3772	0.560557
 72.3872	0.560557
 72.3972	0.560557
 72.4072	0.560557
 72.4172	0.560557
 72.4272	0.560557
 72.4372	0.560557
 72.4472	0.560557
 72.4572	0.560557
 72.4672	0.560557
 72.4772	0.560557
 72.4872	0.560557
 72.4972	0.560557
 72.5073	0.560557
 72.5173	0.560557
 72.5273	0.560557
 72.5373	0.560557
 72.5473	0.560557
 72.5573	0.560557
 72.5673	0.560557
 72.5773	0.560557
 72.5873	0.560557
 72.5973	0.560557
 72.6073	0.560557
 72.6173	0.560557
 72.6273	0.560557
 72.6373	0.560557
 72.6473	0.560557
 72.6573	0.560557
 72.6673	0.560557
 72.6773	0.560557
 72.6873	0.560557
 72.6973	0.560557
 72.7073	0.560557
 72.7173	0.560557
 72.7273	0.560557
 72.7373	0.560557
 72.7473	0.560557
 72.7573	0.560557
 72.7673	0.560557
 72.7773	0.560557
 72.7873	0.560557
 72.7973	0.560557
 72.8073	0.560557
 72.8173	0.560557
 72.8273	0.560557
 72.8373	0.560557
 72.8473	0.560557
 72.8573	0.560557
 72.8673	0.560557
 72.8773	0.560557
 72.8873	0.560557
 72.8973	0.560557
 72.9073	0.560557
 72.9173	0.560557
 72.9273	0.560557
 72.9373	0.560557
 72.9473	0.560557
 72.9573	0.560557
 72.9673	0.560557
 72.9773	0.560557
 72.9873	0.560557
 72.9973	0.560557
 73.0073	0.560557
 73.0173	0.560557
 73.0273	0.560557
 73.0373	0.560557
 73.0473	0.560557
 73.0573	0.560557
 73.0673	0.560557
 73.0773	0.560557
 73.0873	0.560557
 73.0973	0.560557
 73.1073	0.560557
 73.1173	0.560557
 73.1273	0.560557
 73.1373	0.560557
 73.1473	0.560557
 73.1573	0.560557
 73.1673	0.560557
 73.1773	0.560557
 73.1873	0.560557
 73.1973	0.560557
 73.2073	0.560557
 73.2173	0.560557
 73.2273	0.560557
 73.2373	0.560557
 73.2473	0.560557
 73.2573	0.560557
 73.2673	0.560557
 73.2773	0.560557
 73.2873	0.560557
 73.2973	0.560557
 73.3073	0.560557
 73.3173	0.560557
 73.3273	0.560557
 73.3373	0.560557
 73.3473	0.560557
 73.3573	0.560557
 73.3673	0.560557
 73.3773	0.560557
 73.3873	0.560557
 73.3973	0.560557
 73.4073	0.560557
 73.4173	0.560557
 73.4273	0.560557
 73.4373	0.560557
 73.4473	0.560557
 73.4573	0.560557
 73.4673	0.560557
 73.4773	0.560557
 73.4873	0.560557
 73.4973	0.560557
 73.5074	0.560557
 73.5174	0.560557
 73.5274	0.560557
 73.5374	0.560557
 73.5474	0.560557
 73.5574	0.560557
 73.5674	0.560557
 73.5774	0.560557
 73.5874	0.560557
 73.5974	0.560557
 73.6074	0.560557
 73.6174	0.560557
 73.6274	0.560557
 73.6374	0.560557
 73.6474	0.560557
 73.6574	0.560557
 73.6674	0.560557
 73.6774	0.560557
 73.6874	0.560557
 73.6974	0.560557
 73.7074	0.560557
 73.7174	0.560557
 73.7274	0.560557
 73.7374	0.560557
 73.7474	0.560557
 73.7574	0.560557
 73.7674	0.560557
 73.7774	0.560557
 73.7874	0.560557
 73.7974	0.560557
 73.8074	0.560557
 73.8174	0.560557
 73.8274	0.560557
 73.8374	0.560557
 73.8474	0.560557
 73.8574	0.560557
 73.8674	0.560557
 73.8774	0.560557
 73.8874	0.560557
 73.8974	0.560557
 73.9074	0.560557
 73.9174	0.560557
 73.9274	0.560557
 73.9374	0.560557
 73.9474	0.560557
 73.9574	0.560557
 73.9674	0.560557
 73.9774	0.560557
 73.9874	0.560557
 73.9974	0.560557
 74.0074	0.560557
 74.0174	0.560557
 74.0274	0.560557
 74.0374	0.560557
 74.0474	0.560557
 74.0574	0.560557
 74.0674	0.560557
 74.0774	0.560557
 74.0874	0.560557
 74.0974	0.560557
 74.1074	0.560557
 74.1174	0.560557
 74.1274	0.560557
 74.1374	0.560557
 74.1474	0.560557
 74.1574	0.560557
 74.1674	0.560557
 74.1774	0.560557
 74.1874	0.560557
 74.1974	0.560557
 74.2074	0.560557
 74.2174	0.560557
 74.2274	0.560557
 74.2374	0.560557
 74.2474	0.560557
 74.2574	0.560557
 74.2674	0.560557
 74.2774	0.560557
 74.2874	0.560557
 74.2974	0.560557
 74.3074	0.560557
 74.3174	0.560557
 74.3274	0.560557
 74.3374	0.560557
 74.3474	0.560557
 74.3574	0.560557
 74.3674	0.560557
 74.3774	0.560557
 74.3874	0.560557
 74.3974	0.560557
 74.4074	0.560557
 74.4174	0.560557
 74.4274	0.560557
 74.4374	0.560557
 74.4474	0.560557
 74.4574	0.560557
 74.4674	0.560557
 74.4774	0.560557
 74.4874	0.560557
 74.4974	0.560557
 74.5075	0.560557
 74.5175	0.560557
 74.5275	0.560557
 74.5375	0.560557
 74.5475	0.560557
 74.5575	0.560557
 74.5675	0.560557
 74.5775	0.560557
 74.5875	0.560557
 74.5975	0.560557
 74.6075	0.560557
 74.6175	0.560557
 74.6275	0.560557
 74.6375	0.560557
 74.6475	0.560557
 74.6575	0.560557
 74.6675	0.560557
 74.6775	0.560557
 74.6875	0.560557
 74.6975	0.560557
 74.7075	0.560557
 74.7175	0.560557
 74.7275	0.560557
 74.7375	0.560557
 74.7475	0.560557
 74.7575	0.560557
 74.7675	0.560557
 74.7775	0.560557
 74.7875	0.560557
 74.7975	0.560557
 74.8075	0.560557
 74.8175	0.560557
 74.8275	0.560557
 74.8375	0.560557
 74.8475	0.560557
 74.8575	0.560557
 74.8675	0.560557
 74.8775	0.560557
 74.8875	0.560557
 74.8975	0.560557
 74.9075	0.560557
 74.9175	0.560557
 74.9275	0.560557
 74.9375	0.560557
 74.9475	0.560557
 74.9575	0.560557
 74.9675	0.560557
 74.9775	0.560557
 74.9875	0.560557
 74.9975	0.560557
 75.0075	0.560557
 75.0175	0.560557
 75.0275	0.560557
 75.0375	0.560557
 75.0475	0.560557
 75.0575	0.560557
 75.0675	0.560557
 75.0775	0.560557
 75.0875	0.560557
 75.0975	0.560557
 75.1075	0.560557
 75.1175	0.560557
 75.1275	0.560557
 75.1375	0.560557
 75.1475	0.560557
 75.1575	0.560557
 75.1675	0.560557
 75.1775	0.560557
 75.1875	0.560557
 75.1975	0.560557
 75.2075	0.560557
 75.2175	0.560557
 75.2275	0.560557
 75.2375	0.560557
 75.2475	0.560557
 75.2575	0.560557
 75.2675	0.560557
 75.2775	0.560557
 75.2875	0.560557
 75.2975	0.560557
 75.3075	0.560557
 75.3175	0.560557
 75.3275	0.560557
 75.3375	0.560557
 75.3475	0.560557
 75.3575	0.560557
 75.3675	0.560557
 75.3775	0.560557
 75.3875	0.560557
 75.3975	0.560557
 75.4075	0.560557
 75.4175	0.560557
 75.4275	0.560557
 75.4375	0.560557
 75.4475	0.560557
 75.4575	0.560557
 75.4675	0.560557
 75.4775	0.560557
 75.4875	0.560557
 75.4975	0.560557
 75.5076	0.560557
 75.5176	0.560557
 75.5276	0.560557
 75.5376	0.560557
 75.5476	0.560557
 75.5576	0.560557
 75.5676	0.560557
 75.5776	0.560557
 75.5876	0.560557
 75.5976	0.560557
 75.6076	0.560557
 75.6176	0.560557
 75.6276	0.560557
 75.6376	0.560557
 75.6476	0.560557
 75.6576	0.560557
 75.6676	0.560557
 75.6776	0.560557
 75.6876	0.560557
 75.6976	0.560557
 75.7076	0.560557
 75.7176	0.560557
 75.7276	0.560557
 75.7376	0.560557
 75.7476	0.560557
 75.7576	0.560557
 75.7676	0.560557
 75.7776	0.560557
 75.7876	0.560557
 75.7976	0.560557
 75.8076	0.560557
 75.8176	0.560557
 75.8276	0.560557
 75.8376	0.560557
 75.8476	0.560557
 75.8576	0.560557
 75.8676	0.560557
 75.8776	0.560557
 75.8876	0.560557
 75.8976	0.560557
 75.9076	0.560557
 75.9176	0.560557
 75.9276	0.560557
 75.9376	0.560557
 75.9476	0.560557
 75.9576	0.560557
 75.9676	0.560557
 75.9776	0.560557
 75.9876	0.560557
 75.9976	0.560557
 76.0076	0.560557
 76.0176	0.560557
 76.0276	0.560557
 76.0376	0.560557
 76.0476	0.560557
 76.0576	0.560557
 76.0676	0.560557
 76.0776	0.560557
 76.0876	0.560557
 76.0976	0.560557
 76.1076	0.560557
 76.1176	0.560557
 76.1276	0.560557
 76.1376	0.560557
 76.1476	0.560557
 76.1576	0.560557
 76.1676	0.560557
 76.1776	0.560557
 76.1876	0.560557
 76.1976	0.560557
 76.2076	0.560557
 76.2176	0.560557
 76.2276	0.560557
 76.2376	0.560557
 76.2476	0.560557
 76.2576	0.560557
 76.2676	0.560557
 76.2776	0.560557
 76.2876	0.560557
 76.2976	0.560557
 76.3076	0.560557
 76.3176	0.560557
 76.3276	0.560557
 76.3376	0.560557
 76.3476	0.560557
 76.3576	0.560557
 76.3676	0.560557
 76.3776	0.560557
 76.3876	0.560557
 76.3976	0.560557
 76.4076	0.560557
 76.4176	0.560557
 76.4276	0.560557
 76.4376	0.560557
 76.4476	0.560557
 76.4576	0.560557
 76.4676	0.560557
 76.4776	0.560557
 76.4876	0.560557
 76.4976	0.560557
 76.5077	0.560557
 76.5177	0.560557
 76.5277	0.560557
 76.5377	0.560557
 76.5477	0.560557
 76.5577	0.560557
 76.5677	0.560557
 76.5777	0.560557
 76.5877	0.560557
 76.5977	0.560557
 76.6077	0.560557
 76.6177	0.560557
 76.6277	0.560557
 76.6377	0.560557
 76.6477	0.560557
 76.6577	0.560557
 76.6677	0.560557
 76.6777	0.560557
 76.6877	0.560557
 76.6977	0.560557
 76.7077	0.560557
 76.7177	0.560557
 76.7277	0.560557
 76.7377	0.560557
 76.7477	0.560557
 76.7577	0.560557
 76.7677	0.560557
 76.7777	0.560557
 76.7877	0.560557
 76.7977	0.560557
 76.8077	0.560557
 76.8177	0.560557
 76.8277	0.560557
 76.8377	0.560557
 76.8477	0.560557
 76.8577	0.560557
 76.8677	0.560557
 76.8777	0.560557
 76.8877	0.560557
 76.8977	0.560557
 76.9077	0.560557
 76.9177	0.560557
 76.9277	0.560557
 76.9377	0.560557
 76.9477	0.560557
 76.9577	0.560557
 76.9677	0.560557
 76.9777	0.560557
 76.9877	0.560557
 76.9977	0.560557
 77.0077	0.560557
 77.0177	0.560557
 77.0277	0.560557
 77.0377	0.560557
 77.0477	0.560557
 77.0577	0.560557
 77.0677	0.560557
 77.0777	0.560557
 77.0877	0.560557
 77.0977	0.560557
 77.1077	0.560557
 77.1177	0.560557
 77.1277	0.560557
 77.1377	0.560557
 77.1477	0.560557
 77.1577	0.560557
 77.1677	0.560557
 77.1777	0.560557
 77.1877	0.560557
 77.1977	0.560557
 77.2077	0.560557
 77.2177	0.560557
 77.2277	0.560557
 77.2377	0.560557
 77.2477	0.560557
 77.2577	0.560557
 77.2677	0.560557
 77.2777	0.560557
 77.2877	0.560557
 77.2977	0.560557
 77.3077	0.560557
 77.3177	0.560557
 77.3277	0.560557
 77.3377	0.560557
 77.3477	0.560557
 77.3577	0.560557
 77.3677	0.560557
 77.3777	0.560557
 77.3877	0.560557
 77.3977	0.560557
 77.4077	0.560557
 77.4177	0.560557
 77.4277	0.560557
 77.4377	0.560557
 77.4477	0.560557
 77.4577	0.560557
 77.4677	0.560557
 77.4777	0.560557
 77.4877	0.560557
 77.4977	0.560557
 77.5078	0.560557
 77.5178	0.560557
 77.5278	0.560557
 77.5378	0.560557
 77.5478	0.560557
 77.5578	0.560557
 77.5678	0.560557
 77.5778	0.560557
 77.5878	0.560557
 77.5978	0.560557
 77.6078	0.560557
 77.6178	0.560557
 77.6278	0.560557
 77.6378	0.560557
 77.6478	0.560557
 77.6578	0.560557
 77.6678	0.560557
 77.6778	0.560557
 77.6878	0.560557
 77.6978	0.560557
 77.7078	0.560557
 77.7178	0.560557
 77.7278	0.560557
 77.7378	0.560557
 77.7478	0.560557
 77.7578	0.560557
 77.7678	0.560557
 77.7778	0.560557
 77.7878	0.560557
 77.7978	0.560557
 77.8078	0.560557
 77.8178	0.560557
 77.8278	0.560557
 77.8378	0.560557
 77.8478	0.560557
 77.8578	0.560557
 77.8678	0.560557
 77.8778	0.560557
 77.8878	0.560557
 77.8978	0.560557
 77.9078	0.560557
 77.9178	0.560557
 77.9278	0.560557
 77.9378	0.560557
 77.9478	0.560557
 77.9578	0.560557
 77.9678	0.560557
 77.9778	0.560557
 77.9878	0.560557
 77.9978	0.560557
 78.0078	0.560557
 78.0178	0.560557
 78.0278	0.560557
 78.0378	0.560557
 78.0478	0.560557
 78.0578	0.560557
 78.0678	0.560557
 78.0778	0.560557
 78.0878	0.560557
 78.0978	0.560557
 78.1078	0.560557
 78.1178	0.560557
 78.1278	0.560557
 78.1378	0.560557
 78.1478	0.560557
 78.1578	0.560557
 78.1678	0.560557
 78.1778	0.560557
 78.1878	0.560557
 78.1978	0.560557
 78.2078	0.560557
 78.2178	0.560557
 78.2278	0.560557
 78.2378	0.560557
 78.2478	0.560557
 78.2578	0.560557
 78.2678	0.560557
 78.2778	0.560557
 78.2878	0.560557
 78.2978	0.560557
 78.3078	0.560557
 78.3178	0.560557
 78.3278	0.560557
 78.3378	0.560557
 78.3478	0.560557
 78.3578	0.560557
 78.3678	0.560557
 78.3778	0.560557
 78.3878	0.560557
 78.3978	0.560557
 78.4078	0.560557
 78.4178	0.560557
 78.4278	0.560557
 78.4378	0.560557
 78.4478	0.560557
 78.4578	0.560557
 78.4678	0.560557
 78.4778	0.560557
 78.4878	0.560557
 78.4978	0.560557
 78.5079	0.560557
 78.5179	0.560557
 78.5279	0.560557
 78.5379	0.560557
 78.5479	0.560557
 78.5579	0.560557
 78.5679	0.560557
 78.5779	0.560557
 78.5879	0.560557
 78.5979	0.560557
 78.6079	0.560557
 78.6179	0.560557
 78.6279	0.560557
 78.6379	0.560557
 78.6479	0.560557
 78.6579	0.560557
 78.6679	0.560557
 78.6779	0.560557
 78.6879	0.560557
 78.6979	0.560557
 78.7079	0.560557
 78.7179	0.560557
 78.7279	0.560557
 78.7379	0.560557
 78.7479	0.560557
 78.7579	0.560557
 78.7679	0.560557
 78.7779	0.560557
 78.7879	0.560557
 78.7979	0.560557
 78.8079	0.560557
 78.8179	0.560557
 78.8279	0.560557
 78.8379	0.560557
 78.8479	0.560557
 78.8579	0.560557
 78.8679	0.560557
 78.8779	0.560557
 78.8879	0.560557
 78.8979	0.560557
 78.9079	0.560557
 78.9179	0.560557
 78.9279	0.560557
 78.9379	0.560557
 78.9479	0.560557
 78.9579	0.560557
 78.9679	0.560557
 78.9779	0.560557
 78.9879	0.560557
 78.9979	0.560557
 79.0079	0.560557
 79.0179	0.560557
 79.0279	0.560557
 79.0379	0.560557
 79.0479	0.560557
 79.0579	0.560557
 79.0679	0.560557
 79.0779	0.560557
 79.0879	0.560557
 79.0979	0.560557
 79.1079	0.560557
 79.1179	0.560557
 79.1279	0.560557
 79.1379	0.560557
 79.1479	0.560557
 79.1579	0.560557
 79.1679	0.560557
 79.1779	0.560557
 79.1879	0.560557
 79.1979	0.560557
 79.2079	0.560557
 79.2179	0.560557
 79.2279	0.560557
 79.2379	0.560557
 79.2479	0.560557
 79.2579	0.560557
 79.2679	0.560557
 79.2779	0.560557
 79.2879	0.560557
 79.2979	0.560557
 79.3079	0.560557
 79.3179	0.560557
 79.3279	0.560557
 79.3379	0.560557
 79.3479	0.560557
 79.3579	0.560557
 79.3679	0.560557
 79.3779	0.560557
 79.3879	0.560557
 79.3979	0.560557
 79.4079	0.560557
 79.4179	0.560557
 79.4279	0.560557
 79.4379	0.560557
 79.4479	0.560557
 79.4579	0.560557
 79.4679	0.560557
 79.4779	0.560557
 79.4879	0.560557
 79.4979	0.560557
 79.508	0.560557
 79.518	0.560557
 79.528	0.560557
 79.538	0.560557
 79.548	0.560557
 79.558	0.560557
 79.568	0.560557
 79.578	0.560557
 79.588	0.560557
 79.598	0.560557
 79.608	0.560557
 79.618	0.560557
 79.628	0.560557
 79.638	0.560557
 79.648	0.560557
 79.658	0.560557
 79.668	0.560557
 79.678	0.560557
 79.688	0.560557
 79.698	0.560557
 79.708	0.560557
 79.718	0.560557
 79.728	0.560557
 79.738	0.560557
 79.748	0.560557
 79.758	0.560557
 79.768	0.560557
 79.778	0.560557
 79.788	0.560557
 79.798	0.560557
 79.808	0.560557
 79.818	0.560557
 79.828	0.560557
 79.838	0.560557
 79.848	0.560557
 79.858	0.560557
 79.868	0.560557
 79.878	0.560557
 79.888	0.560557
 79.898	0.560557
 79.908	0.560557
 79.918	0.560557
 79.928	0.560557
 79.938	0.560557
 79.948	0.560557
 79.958	0.560557
 79.968	0.560557
 79.978	0.560557
 79.988	0.560557
 79.998	0.560557
 80.008	0.560557
 80.018	0.560557
 80.028	0.560557
 80.038	0.560557
 80.048	0.560557
 80.058	0.560557
 80.068	0.560557
 80.078	0.560557
 80.088	0.560557
 80.098	0.560557
 80.108	0.560557
 80.118	0.560557
 80.128	0.560557
 80.138	0.560557
 80.148	0.560557
 80.158	0.560557
 80.168	0.560557
 80.178	0.560557
 80.188	0.560557
 80.198	0.560557
 80.208	0.560557
 80.218	0.560557
 80.228	0.560557
 80.238	0.560557
 80.248	0.560557
 80.258	0.560557
 80.268	0.560557
 80.278	0.560557
 80.288	0.560557
 80.298	0.560557
 80.308	0.560557
 80.318	0.560557
 80.328	0.560557
 80.338	0.560557
 80.348	0.560557
 80.358	0.560557
 80.368	0.560557
 80.378	0.560557
 80.388	0.560557
 80.398	0.560557
 80.408	0.560557
 80.418	0.560557
 80.428	0.560557
 80.438	0.560557
 80.448	0.560557
 80.458	0.560557
 80.468	0.560557
 80.478	0.560557
 80.488	0.560557
 80.498	0.560557
 80.5081	0.560557
 80.5181	0.560557
 80.5281	0.560557
 80.5381	0.560557
 80.5481	0.560557
 80.5581	0.560557
 80.5681	0.560557
 80.5781	0.560557
 80.5881	0.560557
 80.5981	0.560557
 80.6081	0.560557
 80.6181	0.560557
 80.6281	0.560557
 80.6381	0.560557
 80.6481	0.560557
 80.6581	0.560557
 80.6681	0.560557
 80.6781	0.560557
 80.6881	0.560557
 80.6981	0.560557
 80.7081	0.560557
 80.7181	0.560557
 80.7281	0.560557
 80.7381	0.560557
 80.7481	0.560557
 80.7581	0.560557
 80.7681	0.560557
 80.7781	0.560557
 80.7881	0.560557
 80.7981	0.560557
 80.8081	0.560557
 80.8181	0.560557
 80.8281	0.560557
 80.8381	0.560557
 80.8481	0.560557
 80.8581	0.560557
 80.8681	0.560557
 80.8781	0.560557
 80.8881	0.560557
 80.8981	0.560557
 80.9081	0.560557
 80.9181	0.560557
 80.9281	0.560557
 80.9381	0.560557
 80.9481	0.560557
 80.9581	0.560557
 80.9681	0.560557
 80.9781	0.560557
 80.9881	0.560557
 80.9981	0.560557
 81.0081	0.560557
 81.0181	0.560557
 81.0281	0.560557
 81.0381	0.560557
 81.0481	0.560557
 81.0581	0.560557
 81.0681	0.560557
 81.0781	0.560557
 81.0881	0.560557
 81.0981	0.560557
 81.1081	0.560557
 81.1181	0.560557
 81.1281	0.560557
 81.1381	0.560557
 81.1481	0.560557
 81.1581	0.560557
 81.1681	0.560557
 81.1781	0.560557
 81.1881	0.560557
 81.1981	0.560557
 81.2081	0.560557
 81.2181	0.560557
 81.2281	0.560557
 81.2381	0.560557
 81.2481	0.560557
 81.2581	0.560557
 81.2681	0.560557
 81.2781	0.560557
 81.2881	0.560557
 81.2981	0.560557
 81.3081	0.560557
 81.3181	0.560557
 81.3281	0.560557
 81.3381	0.560557
 81.3481	0.560557
 81.3581	0.560557
 81.3681	0.560557
 81.3781	0.560557
 81.3881	0.560557
 81.3981	0.560557
 81.4081	0.560557
 81.4181	0.560557
 81.4281	0.560557
 81.4381	0.560557
 81.4481	0.560557
 81.4581	0.560557
 81.4681	0.560557
 81.4781	0.560557
 81.4881	0.560557
 81.4981	0.560557
 81.5082	0.560557
 81.5182	0.560557
 81.5282	0.560557
 81.5382	0.560557
 81.5482	0.560557
 81.5582	0.560557
 81.5682	0.560557
 81.5782	0.560557
 81.5882	0.560557
 81.5982	0.560557
 81.6082	0.560557
 81.6182	0.560557
 81.6282	0.560557
 81.6382	0.560557
 81.6482	0.560557
 81.6582	0.560557
 81.6682	0.560557
 81.6782	0.560557
 81.6882	0.560557
 81.6982	0.560557
 81.7082	0.560557
 81.7182	0.560557
 81.7282	0.560557
 81.7382	0.560557
 81.7482	0.560557
 81.7582	0.560557
 81.7682	0.560557
 81.7782	0.560557
 81.7882	0.560557
 81.7982	0.560557
 81.8082	0.560557
 81.8182	0.560557
 81.8282	0.560557
 81.8382	0.560557
 81.8482	0.560557
 81.8582	0.560557
 81.8682	0.560557
 81.8782	0.560557
 81.8882	0.560557
 81.8982	0.560557
 81.9082	0.560557
 81.9182	0.560557
 81.9282	0.560557
 81.9382	0.560557
 81.9482	0.560557
 81.9582	0.560557
 81.9682	0.560557
 81.9782	0.560557
 81.9882	0.560557
 81.9982	0.560557
 82.0082	0.560557
 82.0182	0.560557
 82.0282	0.560557
 82.0382	0.560557
 82.0482	0.560557
 82.0582	0.560557
 82.0682	0.560557
 82.0782	0.560557
 82.0882	0.560557
 82.0982	0.560557
 82.1082	0.560557
 82.1182	0.560557
 82.1282	0.560557
 82.1382	0.560557
 82.1482	0.560557
 82.1582	0.560557
 82.1682	0.560557
 82.1782	0.560557
 82.1882	0.560557
 82.1982	0.560557
 82.2082	0.560557
 82.2182	0.560557
 82.2282	0.560557
 82.2382	0.560557
 82.2482	0.560557
 82.2582	0.560557
 82.2682	0.560557
 82.2782	0.560557
 82.2882	0.560557
 82.2982	0.560557
 82.3082	0.560557
 82.3182	0.560557
 82.3282	0.560557
 82.3382	0.560557
 82.3482	0.560557
 82.3582	0.560557
 82.3682	0.560557
 82.3782	0.560557
 82.3882	0.560557
 82.3982	0.560557
 82.4082	0.560557
 82.4182	0.560557
 82.4282	0.560557
 82.4382	0.560557
 82.4482	0.560557
 82.4582	0.560557
 82.4682	0.560557
 82.4782	0.560557
 82.4882	0.560557
 82.4982	0.560557
 82.5083	0.560557
 82.5183	0.560557
 82.5283	0.560557
 82.5383	0.560557
 82.5483	0.560557
 82.5583	0.560557
 82.5683	0.560557
 82.5783	0.560557
 82.5883	0.560557
 82.5983	0.560557
 82.6083	0.560557
 82.6183	0.560557
 82.6283	0.560557
 82.6383	0.560557
 82.6483	0.560557
 82.6583	0.560557
 82.6683	0.560557
 82.6783	0.560557
 82.6883	0.560557
 82.6983	0.560557
 82.7083	0.560557
 82.7183	0.560557
 82.7283	0.560557
 82.7383	0.560557
 82.7483	0.560557
 82.7583	0.560557
 82.7683	0.560557
 82.7783	0.560557
 82.7883	0.560557
 82.7983	0.560557
 82.8083	0.560557
 82.8183	0.560557
 82.8283	0.560557
 82.8383	0.560557
 82.8483	0.560557
 82.8583	0.560557
 82.8683	0.560557
 82.8783	0.560557
 82.8883	0.560557
 82.8983	0.560557
 82.9083	0.560557
 82.9183	0.560557
 82.9283	0.560557
 82.9383	0.560557
 82.9483	0.560557
 82.9583	0.560557
 82.9683	0.560557
 82.9783	0.560557
 82.9883	0.560557
 82.9983	0.560557
 83.0083	0.560557
 83.0183	0.560557
 83.0283	0.560557
 83.0383	0.560557
 83.0483	0.560557
 83.0583	0.560557
 83.0683	0.560557
 83.0783	0.560557
 83.0883	0.560557
 83.0983	0.560557
 83.1083	0.560557
 83.1183	0.560557
 83.1283	0.560557
 83.1383	0.560557
 83.1483	0.560557
 83.1583	0.560557
 83.1683	0.560557
 83.1783	0.560557
 83.1883	0.560557
 83.1983	0.560557
 83.2083	0.560557
 83.2183	0.560557
 83.2283	0.560557
 83.2383	0.560557
 83.2483	0.560557
 83.2583	0.560557
 83.2683	0.560557
 83.2783	0.560557
 83.2883	0.560557
 83.2983	0.560557
 83.3083	0.560557
 83.3183	0.560557
 83.3283	0.560557
 83.3383	0.560557
 83.3483	0.560557
 83.3583	0.560557
 83.3683	0.560557
 83.3783	0.560557
 83.3883	0.560557
 83.3983	0.560557
 83.4083	0.560557
 83.4183	0.560557
 83.4283	0.560557
 83.4383	0.560557
 83.4483	0.560557
 83.4583	0.560557
 83.4683	0.560557
 83.4783	0.560557
 83.4883	0.560557
 83.4983	0.560557
 83.5084	0.560557
 83.5184	0.560557
 83.5284	0.560557
 83.5384	0.560557
 83.5484	0.560557
 83.5584	0.560557
 83.5684	0.560557
 83.5784	0.560557
 83.5884	0.560557
 83.5984	0.560557
 83.6084	0.560557
 83.6184	0.560557
 83.6284	0.560557
 83.6384	0.560557
 83.6484	0.560557
 83.6584	0.560557
 83.6684	0.560557
 83.6784	0.560557
 83.6884	0.560557
 83.6984	0.560557
 83.7084	0.560557
 83.7184	0.560557
 83.7284	0.560557
 83.7384	0.560557
 83.7484	0.560557
 83.7584	0.560557
 83.7684	0.560557
 83.7784	0.560557
 83.7884	0.560557
 83.7984	0.560557
 83.8084	0.560557
 83.8184	0.560557
 83.8284	0.560557
 83.8384	0.560557
 83.8484	0.560557
 83.8584	0.560557
 83.8684	0.560557
 83.8784	0.560557
 83.8884	0.560557
 83.8984	0.560557
 83.9084	0.560557
 83.9184	0.560557
 83.9284	0.560557
 83.9384	0.560557
 83.9484	0.560557
 83.9584	0.560557
 83.9684	0.560557
 83.9784	0.560557
 83.9884	0.560557
 83.9984	0.560557
 84.0084	0.560557
 84.0184	0.560557
 84.0284	0.560557
 84.0384	0.560557
 84.0484	0.560557
 84.0584	0.560557
 84.0684	0.560557
 84.0784	0.560557
 84.0884	0.560557
 84.0984	0.560557
 84.1084	0.560557
 84.1184	0.560557
 84.1284	0.560557
 84.1384	0.560557
 84.1484	0.560557
 84.1584	0.560557
 84.1684	0.560557
 84.1784	0.560557
 84.1884	0.560557
 84.1984	0.560557
 84.2084	0.560557
 84.2184	0.560557
 84.2284	0.560557
 84.2384	0.560557
 84.2484	0.560557
 84.2584	0.560557
 84.2684	0.560557
 84.2784	0.560557
 84.2884	0.560557
 84.2984	0.560557
 84.3084	0.560557
 84.3184	0.560557
 84.3284	0.560557
 84.3384	0.560557
 84.3484	0.560557
 84.3584	0.560557
 84.3684	0.560557
 84.3784	0.560557
 84.3884	0.560557
 84.3984	0.560557
 84.4084	0.560557
 84.4184	0.560557
 84.4284	0.560557
 84.4384	0.560557
 84.4484	0.560557
 84.4584	0.560557
 84.4684	0.560557
 84.4784	0.560557
 84.4884	0.560557
 84.4984	0.560557
 84.5085	0.560557
 84.5185	0.560557
 84.5285	0.560557
 84.5385	0.560557
 84.5485	0.560557
 84.5585	0.560557
 84.5685	0.560557
 84.5785	0.560557
 84.5885	0.560557
 84.5985	0.560557
 84.6085	0.560557
 84.6185	0.560557
 84.6285	0.560557
 84.6385	0.560557
 84.6485	0.560557
 84.6585	0.560557
 84.6685	0.560557
 84.6785	0.560557
 84.6885	0.560557
 84.6985	0.560557
 84.7085	0.560557
 84.7185	0.560557
 84.7285	0.560557
 84.7385	0.560557
 84.7485	0.560557
 84.7585	0.560557
 84.7685	0.560557
 84.7785	0.560557
 84.7885	0.560557
 84.7985	0.560557
 84.8085	0.560557
 84.8185	0.560557
 84.8285	0.560557
 84.8385	0.560557
 84.8485	0.560557
 84.8585	0.560557
 84.8685	0.560557
 84.8785	0.560557
 84.8885	0.560557
 84.8985	0.560557
 84.9085	0.560557
 84.9185	0.560557
 84.9285	0.560557
 84.9385	0.560557
 84.9485	0.560557
 84.9585	0.560557
 84.9685	0.560557
 84.9785	0.560557
 84.9885	0.560557
 84.9985	0.560557
 85.0085	0.560557
 85.0185	0.560557
 85.0285	0.560557
 85.0385	0.560557
 85.0485	0.560557
 85.0585	0.560557
 85.0685	0.560557
 85.0785	0.560557
 85.0885	0.560557
 85.0985	0.560557
 85.1085	0.560557
 85.1185	0.560557
 85.1285	0.560557
 85.1385	0.560557
 85.1485	0.560557
 85.1585	0.560557
 85.1685	0.560557
 85.1785	0.560557
 85.1885	0.560557
 85.1985	0.560557
 85.2085	0.560557
 85.2185	0.560557
 85.2285	0.560557
 85.2385	0.560557
 85.2485	0.560557
 85.2585	0.560557
 85.2685	0.560557
 85.2785	0.560557
 85.2885	0.560557
 85.2985	0.560557
 85.3085	0.560557
 85.3185	0.560557
 85.3285	0.560557
 85.3385	0.560557
 85.3485	0.560557
 85.3585	0.560557
 85.3685	0.560557
 85.3785	0.560557
 85.3885	0.560557
 85.3985	0.560557
 85.4085	0.560557
 85.4185	0.560557
 85.4285	0.560557
 85.4385	0.560557
 85.4485	0.560557
 85.4585	0.560557
 85.4685	0.560557
 85.4785	0.560557
 85.4885	0.560557
 85.4985	0.560557
 85.5086	0.560557
 85.5186	0.560557
 85.5286	0.560557
 85.5386	0.560557
 85.5486	0.560557
 85.5586	0.560557
 85.5686	0.560557
 85.5786	0.560557
 85.5886	0.560557
 85.5986	0.560557
 85.6086	0.560557
 85.6186	0.560557
 85.6286	0.560557
 85.6386	0.560557
 85.6486	0.560557
 85.6586	0.560557
 85.6686	0.560557
 85.6786	0.560557
 85.6886	0.560557
 85.6986	0.560557
 85.7086	0.560557
 85.7186	0.560557
 85.7286	0.560557
 85.7386	0.560557
 85.7486	0.560557
 85.7586	0.560557
 85.7686	0.560557
 85.7786	0.560557
 85.7886	0.560557
 85.7986	0.560557
 85.8086	0.560557
 85.8186	0.560557
 85.8286	0.560557
 85.8386	0.560557
 85.8486	0.560557
 85.8586	0.560557
 85.8686	0.560557
 85.8786	0.560557
 85.8886	0.560557
 85.8986	0.560557
 85.9086	0.560557
 85.9186	0.560557
 85.9286	0.560557
 85.9386	0.560557
 85.9486	0.560557
 85.9586	0.560557
 85.9686	0.560557
 85.9786	0.560557
 85.9886	0.560557
 85.9986	0.560557
 86.0086	0.560557
 86.0186	0.560557
 86.0286	0.560557
 86.0386	0.560557
 86.0486	0.560557
 86.0586	0.560557
 86.0686	0.560557
 86.0786	0.560557
 86.0886	0.560557
 86.0986	0.560557
 86.1086	0.560557
 86.1186	0.560557
 86.1286	0.560557
 86.1386	0.560557
 86.1486	0.560557
 86.1586	0.560557
 86.1686	0.560557
 86.1786	0.560557
 86.1886	0.560557
 86.1986	0.560557
 86.2086	0.560557
 86.2186	0.560557
 86.2286	0.560557
 86.2386	0.560557
 86.2486	0.560557
 86.2586	0.560557
 86.2686	0.560557
 86.2786	0.560557
 86.2886	0.560557
 86.2986	0.560557
 86.3086	0.560557
 86.3186	0.560557
 86.3286	0.560557
 86.3386	0.560557
 86.3486	0.560557
 86.3586	0.560557
 86.3686	0.560557
 86.3786	0.560557
 86.3886	0.560557
 86.3986	0.560557
 86.4086	0.560557
 86.4186	0.560557
 86.4286	0.560557
 86.4386	0.560557
 86.4486	0.560557
 86.4586	0.560557
 86.4686	0.560557
 86.4786	0.560557
 86.4886	0.560557
 86.4986	0.560557
 86.5087	0.560557
 86.5187	0.560557
 86.5287	0.560557
 86.5387	0.560557
 86.5487	0.560557
 86.5587	0.560557
 86.5687	0.560557
 86.5787	0.560557
 86.5887	0.560557
 86.5987	0.560557
 86.6087	0.560557
 86.6187	0.560557
 86.6287	0.560557
 86.6387	0.560557
 86.6487	0.560557
 86.6587	0.560557
 86.6687	0.560557
 86.6787	0.560557
 86.6887	0.560557
 86.6987	0.560557
 86.7087	0.560557
 86.7187	0.560557
 86.7287	0.560557
 86.7387	0.560557
 86.7487	0.560557
 86.7587	0.560557
 86.7687	0.560557
 86.7787	0.560557
 86.7887	0.560557
 86.7987	0.560557
 86.8087	0.560557
 86.8187	0.560557
 86.8287	0.560557
 86.8387	0.560557
 86.8487	0.560557
 86.8587	0.560557
 86.8687	0.560557
 86.8787	0.560557
 86.8887	0.560557
 86.8987	0.560557
 86.9087	0.560557
 86.9187	0.560557
 86.9287	0.560557
 86.9387	0.560557
 86.9487	0.560557
 86.9587	0.560557
 86.9687	0.560557
 86.9787	0.560557
 86.9887	0.560557
 86.9987	0.560557
 87.0087	0.560557
 87.0187	0.560557
 87.0287	0.560557
 87.0387	0.560557
 87.0487	0.560557
 87.0587	0.560557
 87.0687	0.560557
 87.0787	0.560557
 87.0887	0.560557
 87.0987	0.560557
 87.1087	0.560557
 87.1187	0.560557
 87.1287	0.560557
 87.1387	0.560557
 87.1487	0.560557
 87.1587	0.560557
 87.1687	0.560557
 87.1787	0.560557
 87.1887	0.560557
 87.1987	0.560557
 87.2087	0.560557
 87.2187	0.560557
 87.2287	0.560557
 87.2387	0.560557
 87.2487	0.560557
 87.2587	0.560557
 87.2687	0.560557
 87.2787	0.560557
 87.2887	0.560557
 87.2987	0.560557
 87.3087	0.560557
 87.3187	0.560557
 87.3287	0.560557
 87.3387	0.560557
 87.3487	0.560557
 87.3587	0.560557
 87.3687	0.560557
 87.3787	0.560557
 87.3887	0.560557
 87.3987	0.560557
 87.4087	0.560557
 87.4187	0.560557
 87.4287	0.560557
 87.4387	0.560557
 87.4487	0.560557
 87.4587	0.560557
 87.4687	0.560557
 87.4787	0.560557
 87.4887	0.560557
 87.4987	0.560557
 87.5088	0.560557
 87.5188	0.560557
 87.5288	0.560557
 87.5388	0.560557
 87.5488	0.560557
 87.5588	0.560557
 87.5688	0.560557
 87.5788	0.560557
 87.5888	0.560557
 87.5988	0.560557
 87.6088	0.560557
 87.6188	0.560557
 87.6288	0.560557
 87.6388	0.560557
 87.6488	0.560557
 87.6588	0.560557
 87.6688	0.560557
 87.6788	0.560557
 87.6888	0.560557
 87.6988	0.560557
 87.7088	0.560557
 87.7188	0.560557
 87.7288	0.560557
 87.7388	0.560557
 87.7488	0.560557
 87.7588	0.560557
 87.7688	0.560557
 87.7788	0.560557
 87.7888	0.560557
 87.7988	0.560557
 87.8088	0.560557
 87.8188	0.560557
 87.8288	0.560557
 87.8388	0.560557
 87.8488	0.560557
 87.8588	0.560557
 87.8688	0.560557
 87.8788	0.560557
 87.8888	0.560557
 87.8988	0.560557
 87.9088	0.560557
 87.9188	0.560557
 87.9288	0.560557
 87.9388	0.560557
 87.9488	0.560557
 87.9588	0.560557
 87.9688	0.560557
 87.9788	0.560557
 87.9888	0.560557
 87.9988	0.560557
 88.0088	0.560557
 88.0188	0.560557
 88.0288	0.560557
 88.0388	0.560557
 88.0488	0.560557
 88.0588	0.560557
 88.0688	0.560557
 88.0788	0.560557
 88.0888	0.560557
 88.0988	0.560557
 88.1088	0.560557
 88.1188	0.560557
 88.1288	0.560557
 88.1388	0.560557
 88.1488	0.560557
 88.1588	0.560557
 88.1688	0.560557
 88.1788	0.560557
 88.1888	0.560557
 88.1988	0.560557
 88.2088	0.560557
 88.2188	0.560557
 88.2288	0.560557
 88.2388	0.560557
 88.2488	0.560557
 88.2588	0.560557
 88.2688	0.560557
 88.2788	0.560557
 88.2888	0.560557
 88.2988	0.560557
 88.3088	0.560557
 88.3188	0.560557
 88.3288	0.560557
 88.3388	0.560557
 88.3488	0.560557
 88.3588	0.560557
 88.3688	0.560557
 88.3788	0.560557
 88.3888	0.560557
 88.3988	0.560557
 88.4088	0.560557
 88.4188	0.560557
 88.4288	0.560557
 88.4388	0.560557
 88.4488	0.560557
 88.4588	0.560557
 88.4688	0.560557
 88.4788	0.560557
 88.4888	0.560557
 88.4988	0.560557
 88.5089	0.560557
 88.5189	0.560557
 88.5289	0.560557
 88.5389	0.560557
 88.5489	0.560557
 88.5589	0.560557
 88.5689	0.560557
 88.5789	0.560557
 88.5889	0.560557
 88.5989	0.560557
 88.6089	0.560557
 88.6189	0.560557
 88.6289	0.560557
 88.6389	0.560557
 88.6489	0.560557
 88.6589	0.560557
 88.6689	0.560557
 88.6789	0.560557
 88.6889	0.560557
 88.6989	0.560557
 88.7089	0.560557
 88.7189	0.560557
 88.7289	0.560557
 88.7389	0.560557
 88.7489	0.560557
 88.7589	0.560557
 88.7689	0.560557
 88.7789	0.560557
 88.7889	0.560557
 88.7989	0.560557
 88.8089	0.560557
 88.8189	0.560557
 88.8289	0.560557
 88.8389	0.560557
 88.8489	0.560557
 88.8589	0.560557
 88.8689	0.560557
 88.8789	0.560557
 88.8889	0.560557
 88.8989	0.560557
 88.9089	0.560557
 88.9189	0.560557
 88.9289	0.560557
 88.9389	0.560557
 88.9489	0.560557
 88.9589	0.560557
 88.9689	0.560557
 88.9789	0.560557
 88.9889	0.560557
 88.9989	0.560557
 89.0089	0.560557
 89.0189	0.560557
 89.0289	0.560557
 89.0389	0.560557
 89.0489	0.560557
 89.0589	0.560557
 89.0689	0.560557
 89.0789	0.560557
 89.0889	0.560557
 89.0989	0.560557
 89.1089	0.560557
 89.1189	0.560557
 89.1289	0.560557
 89.1389	0.560557
 89.1489	0.560557
 89.1589	0.560557
 89.1689	0.560557
 89.1789	0.560557
 89.1889	0.560557
 89.1989	0.560557
 89.2089	0.560557
 89.2189	0.560557
 89.2289	0.560557
 89.2389	0.560557
 89.2489	0.560557
 89.2589	0.560557
 89.2689	0.560557
 89.2789	0.560557
 89.2889	0.560557
 89.2989	0.560557
 89.3089	0.560557
 89.3189	0.560557
 89.3289	0.560557
 89.3389	0.560557
 89.3489	0.560557
 89.3589	0.560557
 89.3689	0.560557
 89.3789	0.560557
 89.3889	0.560557
 89.3989	0.560557
 89.4089	0.560557
 89.4189	0.560557
 89.4289	0.560557
 89.4389	0.560557
 89.4489	0.560557
 89.4589	0.560557
 89.4689	0.560557
 89.4789	0.560557
 89.4889	0.560557
 89.4989	0.560557
 89.509	0.560557
 89.519	0.560557
 89.529	0.560557
 89.539	0.560557
 89.549	0.560557
 89.559	0.560557
 89.569	0.560557
 89.579	0.560557
 89.589	0.560557
 89.599	0.560557
 89.609	0.560557
 89.619	0.560557
 89.629	0.560557
 89.639	0.560557
 89.649	0.560557
 89.659	0.560557
 89.669	0.560557
 89.679	0.560557
 89.689	0.560557
 89.699	0.560557
 89.709	0.560557
 89.719	0.560557
 89.729	0.560557
 89.739	0.560557
 89.749	0.560557
 89.759	0.560557
 89.769	0.560557
 89.779	0.560557
 89.789	0.560557
 89.799	0.560557
 89.809	0.560557
 89.819	0.560557
 89.829	0.560557
 89.839	0.560557
 89.849	0.560557
 89.859	0.560557
 89.869	0.560557
 89.879	0.560557
 89.889	0.560557
 89.899	0.560557
 89.909	0.560557
 89.919	0.560557
 89.929	0.560557
 89.939	0.560557
 89.949	0.560557
 89.959	0.560557
 89.969	0.560557
 89.979	0.560557
 89.989	0.560557
 89.999	0.560557
 90.009	0.560557
 90.019	0.560557
 90.029	0.560557
 90.039	0.560557
 90.049	0.560557
 90.059	0.560557
 90.069	0.560557
 90.079	0.560557
 90.089	0.560557
 90.099	0.560557
 90.109	0.560557
 90.119	0.560557
 90.129	0.560557
 90.139	0.560557
 90.149	0.560557
 90.159	0.560557
 90.169	0.560557
 90.179	0.560557
 90.189	0.560557
 90.199	0.560557
 90.209	0.560557
 90.219	0.560557
 90.229	0.560557
 90.239	0.560557
 90.249	0.560557
 90.259	0.560557
 90.269	0.560557
 90.279	0.560557
 90.289	0.560557
 90.299	0.560557
 90.309	0.560557
 90.319	0.560557
 90.329	0.560557
 90.339	0.560557
 90.349	0.560557
 90.359	0.560557
 90.369	0.560557
 90.379	0.560557
 90.389	0.560557
 90.399	0.560557
 90.409	0.560557
 90.419	0.560557
 90.429	0.560557
 90.439	0.560557
 90.449	0.560557
 90.459	0.560557
 90.469	0.560557
 90.479	0.560557
 90.489	0.560557
 90.499	0.560557
 90.5091	0.560557
 90.5191	0.560557
 90.5291	0.560557
 90.5391	0.560557
 90.5491	0.560557
 90.5591	0.560557
 90.5691	0.560557
 90.5791	0.560557
 90.5891	0.560557
 90.5991	0.560557
 90.6091	0.560557
 90.6191	0.560557
 90.6291	0.560557
 90.6391	0.560557
 90.6491	0.560557
 90.6591	0.560557
 90.6691	0.560557
 90.6791	0.560557
 90.6891	0.560557
 90.6991	0.560557
 90.7091	0.560557
 90.7191	0.560557
 90.7291	0.560557
 90.7391	0.560557
 90.7491	0.560557
 90.7591	0.560557
 90.7691	0.560557
 90.7791	0.560557
 90.7891	0.560557
 90.7991	0.560557
 90.8091	0.560557
 90.8191	0.560557
 90.8291	0.560557
 90.8391	0.560557
 90.8491	0.560557
 90.8591	0.560557
 90.8691	0.560557
 90.8791	0.560557
 90.8891	0.560557
 90.8991	0.560557
 90.9091	0.560557
 90.9191	0.560557
 90.9291	0.560557
 90.9391	0.560557
 90.9491	0.560557
 90.9591	0.560557
 90.9691	0.560557
 90.9791	0.560557
 90.9891	0.560557
 90.9991	0.560557
 91.0091	0.560557
 91.0191	0.560557
 91.0291	0.560557
 91.0391	0.560557
 91.0491	0.560557
 91.0591	0.560557
 91.0691	0.560557
 91.0791	0.560557
 91.0891	0.560557
 91.0991	0.560557
 91.1091	0.560557
 91.1191	0.560557
 91.1291	0.560557
 91.1391	0.560557
 91.1491	0.560557
 91.1591	0.560557
 91.1691	0.560557
 91.1791	0.560557
 91.1891	0.560557
 91.1991	0.560557
 91.2091	0.560557
 91.2191	0.560557
 91.2291	0.560557
 91.2391	0.560557
 91.2491	0.560557
 91.2591	0.560557
 91.2691	0.560557
 91.2791	0.560557
 91.2891	0.560557
 91.2991	0.560557
 91.3091	0.560557
 91.3191	0.560557
 91.3291	0.560557
 91.3391	0.560557
 91.3491	0.560557
 91.3591	0.560557
 91.3691	0.560557
 91.3791	0.560557
 91.3891	0.560557
 91.3991	0.560557
 91.4091	0.560557
 91.4191	0.560557
 91.4291	0.560557
 91.4391	0.560557
 91.4491	0.560557
 91.4591	0.560557
 91.4691	0.560557
 91.4791	0.560557
 91.4891	0.560557
 91.4991	0.560557
 91.5092	0.560557
 91.5192	0.560557
 91.5292	0.560557
 91.5392	0.560557
 91.5492	0.560557
 91.5592	0.560557
 91.5692	0.560557
 91.5792	0.560557
 91.5892	0.560557
 91.5992	0.560557
 91.6092	0.560557
 91.6192	0.560557
 91.6292	0.560557
 91.6392	0.560557
 91.6492	0.560557
 91.6592	0.560557
 91.6692	0.560557
 91.6792	0.560557
 91.6892	0.560557
 91.6992	0.560557
 91.7092	0.560557
 91.7192	0.560557
 91.7292	0.560557
 91.7392	0.560557
 91.7492	0.560557
 91.7592	0.560557
 91.7692	0.560557
 91.7792	0.560557
 91.7892	0.560557
 91.7992	0.560557
 91.8092	0.560557
 91.8192	0.560557
 91.8292	0.560557
 91.8392	0.560557
 91.8492	0.560557
 91.8592	0.560557
 91.8692	0.560557
 91.8792	0.560557
 91.8892	0.560557
 91.8992	0.560557
 91.9092	0.560557
 91.9192	0.560557
 91.9292	0.560557
 91.9392	0.560557
 91.9492	0.560557
 91.9592	0.560557
 91.9692	0.560557
 91.9792	0.560557
 91.9892	0.560557
 91.9992	0.560557
 92.0092	0.560557
 92.0192	0.560557
 92.0292	0.560557
 92.0392	0.560557
 92.0492	0.560557
 92.0592	0.560557
 92.0692	0.560557
 92.0792	0.560557
 92.0892	0.560557
 92.0992	0.560557
 92.1092	0.560557
 92.1192	0.560557
 92.1292	0.560557
 92.1392	0.560557
 92.1492	0.560557
 92.1592	0.560557
 92.1692	0.560557
 92.1792	0.560557
 92.1892	0.560557
 92.1992	0.560557
 92.2092	0.560557
 92.2192	0.560557
 92.2292	0.560557
 92.2392	0.560557
 92.2492	0.560557
 92.2592	0.560557
 92.2692	0.560557
 92.2792	0.560557
 92.2892	0.560557
 92.2992	0.560557
 92.3092	0.560557
 92.3192	0.560557
 92.3292	0.560557
 92.3392	0.560557
 92.3492	0.560557
 92.3592	0.560557
 92.3692	0.560557
 92.3792	0.560557
 92.3892	0.560557
 92.3992	0.560557
 92.4092	0.560557
 92.4192	0.560557
 92.4292	0.560557
 92.4392	0.560557
 92.4492	0.560557
 92.4592	0.560557
 92.4692	0.560557
 92.4792	0.560557
 92.4892	0.560557
 92.4992	0.560557
 92.5093	0.560557
 92.5193	0.560557
 92.5293	0.560557
 92.5393	0.560557
 92.5493	0.560557
 92.5593	0.560557
 92.5693	0.560557
 92.5793	0.560557
 92.5893	0.560557
 92.5993	0.560557
 92.6093	0.560557
 92.6193	0.560557
 92.6293	0.560557
 92.6393	0.560557
 92.6493	0.560557
 92.6593	0.560557
 92.6693	0.560557
 92.6793	0.560557
 92.6893	0.560557
 92.6993	0.560557
 92.7093	0.560557
 92.7193	0.560557
 92.7293	0.560557
 92.7393	0.560557
 92.7493	0.560557
 92.7593	0.560557
 92.7693	0.560557
 92.7793	0.560557
 92.7893	0.560557
 92.7993	0.560557
 92.8093	0.560557
 92.8193	0.560557
 92.8293	0.560557
 92.8393	0.560557
 92.8493	0.560557
 92.8593	0.560557
 92.8693	0.560557
 92.8793	0.560557
 92.8893	0.560557
 92.8993	0.560557
 92.9093	0.560557
 92.9193	0.560557
 92.9293	0.560557
 92.9393	0.560557
 92.9493	0.560557
 92.9593	0.560557
 92.9693	0.560557
 92.9793	0.560557
 92.9893	0.560557
 92.9993	0.560557
 93.0093	0.560557
 93.0193	0.560557
 93.0293	0.560557
 93.0393	0.560557
 93.0493	0.560557
 93.0593	0.560557
 93.0693	0.560557
 93.0793	0.560557
 93.0893	0.560557
 93.0993	0.560557
 93.1093	0.560557
 93.1193	0.560557
 93.1293	0.560557
 93.1393	0.560557
 93.1493	0.560557
 93.1593	0.560557
 93.1693	0.560557
 93.1793	0.560557
 93.1893	0.560557
 93.1993	0.560557
 93.2093	0.560557
 93.2193	0.560557
 93.2293	0.560557
 93.2393	0.560557
 93.2493	0.560557
 93.2593	0.560557
 93.2693	0.560557
 93.2793	0.560557
 93.2893	0.560557
 93.2993	0.560557
 93.3093	0.560557
 93.3193	0.560557
 93.3293	0.560557
 93.3393	0.560557
 93.3493	0.560557
 93.3593	0.560557
 93.3693	0.560557
 93.3793	0.560557
 93.3893	0.560557
 93.3993	0.560557
 93.4093	0.560557
 93.4193	0.560557
 93.4293	0.560557
 93.4393	0.560557
 93.4493	0.560557
 93.4593	0.560557
 93.4693	0.560557
 93.4793	0.560557
 93.4893	0.560557
 93.4993	0.560557
 93.5094	0.560557
 93.5194	0.560557
 93.5294	0.560557
 93.5394	0.560557
 93.5494	0.560557
 93.5594	0.560557
 93.5694	0.560557
 93.5794	0.560557
 93.5894	0.560557
 93.5994	0.560557
 93.6094	0.560557
 93.6194	0.560557
 93.6294	0.560557
 93.6394	0.560557
 93.6494	0.560557
 93.6594	0.560557
 93.6694	0.560557
 93.6794	0.560557
 93.6894	0.560557
 93.6994	0.560557
 93.7094	0.560557
 93.7194	0.560557
 93.7294	0.560557
 93.7394	0.560557
 93.7494	0.560557
 93.7594	0.560557
 93.7694	0.560557
 93.7794	0.560557
 93.7894	0.560557
 93.7994	0.560557
 93.8094	0.560557
 93.8194	0.560557
 93.8294	0.560557
 93.8394	0.560557
 93.8494	0.560557
 93.8594	0.560557
 93.8694	0.560557
 93.8794	0.560557
 93.8894	0.560557
 93.8994	0.560557
 93.9094	0.560557
 93.9194	0.560557
 93.9294	0.560557
 93.9394	0.560557
 93.9494	0.560557
 93.9594	0.560557
 93.9694	0.560557
 93.9794	0.560557
 93.9894	0.560557
 93.9994	0.560557
 94.0094	0.560557
 94.0194	0.560557
 94.0294	0.560557
 94.0394	0.560557
 94.0494	0.560557
 94.0594	0.560557
 94.0694	0.560557
 94.0794	0.560557
 94.0894	0.560557
 94.0994	0.560557
 94.1094	0.560557
 94.1194	0.560557
 94.1294	0.560557
 94.1394	0.560557
 94.1494	0.560557
 94.1594	0.560557
 94.1694	0.560557
 94.1794	0.560557
 94.1894	0.560557
 94.1994	0.560557
 94.2094	0.560557
 94.2194	0.560557
 94.2294	0.560557
 94.2394	0.560557
 94.2494	0.560557
 94.2594	0.560557
 94.2694	0.560557
 94.2794	0.560557
 94.2894	0.560557
 94.2994	0.560557
 94.3094	0.560557
 94.3194	0.560557
 94.3294	0.560557
 94.3394	0.560557
 94.3494	0.560557
 94.3594	0.560557
 94.3694	0.560557
 94.3794	0.560557
 94.3894	0.560557
 94.3994	0.560557
 94.4094	0.560557
 94.4194	0.560557
 94.4294	0.560557
 94.4394	0.560557
 94.4494	0.560557
 94.4594	0.560557
 94.4694	0.560557
 94.4794	0.560557
 94.4894	0.560557
 94.4994	0.560557
 94.5095	0.560557
 94.5195	0.560557
 94.5295	0.560557
 94.5395	0.560557
 94.5495	0.560557
 94.5595	0.560557
 94.5695	0.560557
 94.5795	0.560557
 94.5895	0.560557
 94.5995	0.560557
 94.6095	0.560557
 94.6195	0.560557
 94.6295	0.560557
 94.6395	0.560557
 94.6495	0.560557
 94.6595	0.560557
 94.6695	0.560557
 94.6795	0.560557
 94.6895	0.560557
 94.6995	0.560557
 94.7095	0.560557
 94.7195	0.560557
 94.7295	0.560557
 94.7395	0.560557
 94.7495	0.560557
 94.7595	0.560557
 94.7695	0.560557
 94.7795	0.560557
 94.7895	0.560557
 94.7995	0.560557
 94.8095	0.560557
 94.8195	0.560557
 94.8295	0.560557
 94.8395	0.560557
 94.8495	0.560557
 94.8595	0.560557
 94.8695	0.560557
 94.8795	0.560557
 94.8895	0.560557
 94.8995	0.560557
 94.9095	0.560557
 94.9195	0.560557
 94.9295	0.560557
 94.9395	0.560557
 94.9495	0.560557
 94.9595	0.560557
 94.9695	0.560557
 94.9795	0.560557
 94.9895	0.560557
 94.9995	0.560557
 95.0095	0.560557
 95.0195	0.560557
 95.0295	0.560557
 95.0395	0.560557
 95.0495	0.560557
 95.0595	0.560557
 95.0695	0.560557
 95.0795	0.560557
 95.0895	0.560557
 95.0995	0.560557
 95.1095	0.560557
 95.1195	0.560557
 95.1295	0.560557
 95.1395	0.560557
 95.1495	0.560557
 95.1595	0.560557
 95.1695	0.560557
 95.1795	0.560557
 95.1895	0.560557
 95.1995	0.560557
 95.2095	0.560557
 95.2195	0.560557
 95.2295	0.560557
 95.2395	0.560557
 95.2495	0.560557
 95.2595	0.560557
 95.2695	0.560557
 95.2795	0.560557
 95.2895	0.560557
 95.2995	0.560557
 95.3095	0.560557
 95.3195	0.560557
 95.3295	0.560557
 95.3395	0.560557
 95.3495	0.560557
 95.3595	0.560557
 95.3695	0.560557
 95.3795	0.560557
 95.3895	0.560557
 95.3995	0.560557
 95.4095	0.560557
 95.4195	0.560557
 95.4295	0.560557
 95.4395	0.560557
 95.4495	0.560557
 95.4595	0.560557
 95.4695	0.560557
 95.4795	0.560557
 95.4895	0.560557
 95.4995	0.560557
 95.5096	0.560557
 95.5196	0.560557
 95.5296	0.560557
 95.5396	0.560557
 95.5496	0.560557
 95.5596	0.560557
 95.5696	0.560557
 95.5796	0.560557
 95.5896	0.560557
 95.5996	0.560557
 95.6096	0.560557
 95.6196	0.560557
 95.6296	0.560557
 95.6396	0.560557
 95.6496	0.560557
 95.6596	0.560557
 95.6696	0.560557
 95.6796	0.560557
 95.6896	0.560557
 95.6996	0.560557
 95.7096	0.560557
 95.7196	0.560557
 95.7296	0.560557
 95.7396	0.560557
 95.7496	0.560557
 95.7596	0.560557
 95.7696	0.560557
 95.7796	0.560557
 95.7896	0.560557
 95.7996	0.560557
 95.8096	0.560557
 95.8196	0.560557
 95.8296	0.560557
 95.8396	0.560557
 95.8496	0.560557
 95.8596	0.560557
 95.8696	0.560557
 95.8796	0.560557
 95.8896	0.560557
 95.8996	0.560557
 95.9096	0.560557
 95.9196	0.560557
 95.9296	0.560557
 95.9396	0.560557
 95.9496	0.560557
 95.9596	0.560557
 95.9696	0.560557
 95.9796	0.560557
 95.9896	0.560557
 95.9996	0.560557
 96.0096	0.560557
 96.0196	0.560557
 96.0296	0.560557
 96.0396	0.560557
 96.0496	0.560557
 96.0596	0.560557
 96.0696	0.560557
 96.0796	0.560557
 96.0896	0.560557
 96.0996	0.560557
 96.1096	0.560557
 96.1196	0.560557
 96.1296	0.560557
 96.1396	0.560557
 96.1496	0.560557
 96.1596	0.560557
 96.1696	0.560557
 96.1796	0.560557
 96.1896	0.560557
 96.1996	0.560557
 96.2096	0.560557
 96.2196	0.560557
 96.2296	0.560557
 96.2396	0.560557
 96.2496	0.560557
 96.2596	0.560557
 96.2696	0.560557
 96.2796	0.560557
 96.2896	0.560557
 96.2996	0.560557
 96.3096	0.560557
 96.3196	0.560557
 96.3296	0.560557
 96.3396	0.560557
 96.3496	0.560557
 96.3596	0.560557
 96.3696	0.560557
 96.3796	0.560557
 96.3896	0.560557
 96.3996	0.560557
 96.4096	0.560557
 96.4196	0.560557
 96.4296	0.560557
 96.4396	0.560557
 96.4496	0.560557
 96.4596	0.560557
 96.4696	0.560557
 96.4796	0.560557
 96.4896	0.560557
 96.4996	0.560557
 96.5097	0.560557
 96.5197	0.560557
 96.5297	0.560557
 96.5397	0.560557
 96.5497	0.560557
 96.5597	0.560557
 96.5697	0.560557
 96.5797	0.560557
 96.5897	0.560557
 96.5997	0.560557
 96.6097	0.560557
 96.6197	0.560557
 96.6297	0.560557
 96.6397	0.560557
 96.6497	0.560557
 96.6597	0.560557
 96.6697	0.560557
 96.6797	0.560557
 96.6897	0.560557
 96.6997	0.560557
 96.7097	0.560557
 96.7197	0.560557
 96.7297	0.560557
 96.7397	0.560557
 96.7497	0.560557
 96.7597	0.560557
 96.7697	0.560557
 96.7797	0.560557
 96.7897	0.560557
 96.7997	0.560557
 96.8097	0.560557
 96.8197	0.560557
 96.8297	0.560557
 96.8397	0.560557
 96.8497	0.560557
 96.8597	0.560557
 96.8697	0.560557
 96.8797	0.560557
 96.8897	0.560557
 96.8997	0.560557
 96.9097	0.560557
 96.9197	0.560557
 96.9297	0.560557
 96.9397	0.560557
 96.9497	0.560557
 96.9597	0.560557
 96.9697	0.560557
 96.9797	0.560557
 96.9897	0.560557
 96.9997	0.560557
 97.0097	0.560557
 97.0197	0.560557
 97.0297	0.560557
 97.0397	0.560557
 97.0497	0.560557
 97.0597	0.560557
 97.0697	0.560557
 97.0797	0.560557
 97.0897	0.560557
 97.0997	0.560557
 97.1097	0.560557
 97.1197	0.560557
 97.1297	0.560557
 97.1397	0.560557
 97.1497	0.560557
 97.1597	0.560557
 97.1697	0.560557
 97.1797	0.560557
 97.1897	0.560557
 97.1997	0.560557
 97.2097	0.560557
 97.2197	0.560557
 97.2297	0.560557
 97.2397	0.560557
 97.2497	0.560557
 97.2597	0.560557
 97.2697	0.560557
 97.2797	0.560557
 97.2897	0.560557
 97.2997	0.560557
 97.3097	0.560557
 97.3197	0.560557
 97.3297	0.560557
 97.3397	0.560557
 97.3497	0.560557
 97.3597	0.560557
 97.3697	0.560557
 97.3797	0.560557
 97.3897	0.560557
 97.3997	0.560557
 97.4097	0.560557
 97.4197	0.560557
 97.4297	0.560557
 97.4397	0.560557
 97.4497	0.560557
 97.4597	0.560557
 97.4697	0.560557
 97.4797	0.560557
 97.4897	0.560557
 97.4997	0.560557
 97.5098	0.560557
 97.5198	0.560557
 97.5298	0.560557
 97.5398	0.560557
 97.5498	0.560557
 97.5598	0.560557
 97.5698	0.560557
 97.5798	0.560557
 97.5898	0.560557
 97.5998	0.560557
 97.6098	0.560557
 97.6198	0.560557
 97.6298	0.560557
 97.6398	0.560557
 97.6498	0.560557
 97.6598	0.560557
 97.6698	0.560557
 97.6798	0.560557
 97.6898	0.560557
 97.6998	0.560557
 97.7098	0.560557
 97.7198	0.560557
 97.7298	0.560557
 97.7398	0.560557
 97.7498	0.560557
 97.7598	0.560557
 97.7698	0.560557
 97.7798	0.560557
 97.7898	0.560557
 97.7998	0.560557
 97.8098	0.560557
 97.8198	0.560557
 97.8298	0.560557
 97.8398	0.560557
 97.8498	0.560557
 97.8598	0.560557
 97.8698	0.560557
 97.8798	0.560557
 97.8898	0.560557
 97.8998	0.560557
 97.9098	0.560557
 97.9198	0.560557
 97.9298	0.560557
 97.9398	0.560557
 97.9498	0.560557
 97.9598	0.560557
 97.9698	0.560557
 97.9798	0.560557
 97.9898	0.560557
 97.9998	0.560557
 98.0098	0.560557
 98.0198	0.560557
 98.0298	0.560557
 98.0398	0.560557
 98.0498	0.560557
 98.0598	0.560557
 98.0698	0.560557
 98.0798	0.560557
 98.0898	0.560557
 98.0998	0.560557
 98.1098	0.560557
 98.1198	0.560557
 98.1298	0.560557
 98.1398	0.560557
 98.1498	0.560557
 98.1598	0.560557
 98.1698	0.560557
 98.1798	0.560557
 98.1898	0.560557
 98.1998	0.560557
 98.2098	0.560557
 98.2198	0.560557
 98.2298	0.560557
 98.2398	0.560557
 98.2498	0.560557
 98.2598	0.560557
 98.2698	0.560557
 98.2798	0.560557
 98.2898	0.560557
 98.2998	0.560557
 98.3098	0.560557
 98.3198	0.560557
 98.3298	0.560557
 98.3398	0.560557
 98.3498	0.560557
 98.3598	0.560557
 98.3698	0.560557
 98.3798	0.560557
 98.3898	0.560557
 98.3998	0.560557
 98.4098	0.560557
 98.4198	0.560557
 98.4298	0.560557
 98.4398	0.560557
 98.4498	0.560557
 98.4598	0.560557
 98.4698	0.560557
 98.4798	0.560557
 98.4898	0.560557
 98.4998	0.560557
 98.5099	0.560557
 98.5199	0.560557
 98.5299	0.560557
 98.5399	0.560557
 98.5499	0.560557
 98.5599	0.560557
 98.5699	0.560557
 98.5799	0.560557
 98.5899	0.560557
 98.5999	0.560557
 98.6099	0.560557
 98.6199	0.560557
 98.6299	0.560557
 98.6399	0.560557
 98.6499	0.560557
 98.6599	0.560557
 98.6699	0.560557
 98.6799	0.560557
 98.6899	0.560557
 98.6999	0.560557
 98.7099	0.560557
 98.7199	0.560557
 98.7299	0.560557
 98.7399	0.560557
 98.7499	0.560557
 98.7599	0.560557
 98.7699	0.560557
 98.7799	0.560557
 98.7899	0.560557
 98.7999	0.560557
 98.8099	0.560557
 98.8199	0.560557
 98.8299	0.560557
 98.8399	0.560557
 98.8499	0.560557
 98.8599	0.560557
 98.8699	0.560557
 98.8799	0.560557
 98.8899	0.560557
 98.8999	0.560557
 98.9099	0.560557
 98.9199	0.560557
 98.9299	0.560557
 98.9399	0.560557
 98.9499	0.560557
 98.9599	0.560557
 98.9699	0.560557
 98.9799	0.560557
 98.9899	0.560557
 98.9999	0.560557
 99.0099	0.560557
 99.0199	0.560557
 99.0299	0.560557
 99.0399	0.560557
 99.0499	0.560557
 99.0599	0.560557
 99.0699	0.560557
 99.0799	0.560557
 99.0899	0.560557
 99.0999	0.560557
 99.1099	0.560557
 99.1199	0.560557
 99.1299	0.560557
 99.1399	0.560557
 99.1499	0.560557
 99.1599	0.560557
 99.1699	0.560557
 99.1799	0.560557
 99.1899	0.560557
 99.1999	0.560557
 99.2099	0.560557
 99.2199	0.560557
 99.2299	0.560557
 99.2399	0.560557
 99.2499	0.560557
 99.2599	0.560557
 99.2699	0.560557
 99.2799	0.560557
 99.2899	0.560557
 99.2999	0.560557
 99.3099	0.560557
 99.3199	0.560557
 99.3299	0.560557
 99.3399	0.560557
 99.3499	0.560557
 99.3599	0.560557
 99.3699	0.560557
 99.3799	0.560557
 99.3899	0.560557
 99.3999	0.560557
 99.4099	0.560557
 99.4199	0.560557
 99.4299	0.560557
 99.4399	0.560557
 99.4499	0.560557
 99.4599	0.560557
 99.4699	0.560557
 99.4799	0.560557
 99.4899	0.560557
 99.4999	0.560557
 99.51	0.560557
 99.52	0.560557
 99.53	0.560557
 99.54	0.560557
 99.55	0.560557
 99.56	0.560557
 99.57	0.560557
 99.58	0.560557
 99.59	0.560557
 99.6	0.560557
 99.61	0.560557
 99.62	0.560557
 99.63	0.560557
 99.64	0.560557
 99.65	0.560557
 99.66	0.560557
 99.67	0.560557
 99.68	0.560557
 99.69	0.560557
 99.7	0.560557
 99.71	0.560557
 99.72	0.560557
 99.73	0.560557
 99.74	0.560557
 99.75	0.560557
 99.76	0.560557
 99.77	0.560557
 99.78	0.560557
 99.79	0.560557
 99.8	0.560557
 99.81	0.560557
 99.82	0.560557
 99.83	0.560557
 99.84	0.560557
 99.85	0.560557
 99.86	0.560557
 99.87	0.560557
 99.88	0.560557
 99.89	0.560557
 99.9	0.560557
 99.91	0.560557
 99.92	0.560557
 99.93	0.560557
 99.94	0.560557
 99.95	0.560557
 99.96	0.560557
 99.97	0.560557
 99.98	0.560557
 99.99	0.560557
 100	0.560557
