# Cut-survival probability for electron-recoil events
# within the electron-recoil band
# Energy [keV] | Cut-survival probability
 0	0
 0.010001	0
 0.020002	0
 0.030003	0
 0.040004	0
 0.050005	0
 0.060006	0
 0.070007	0
 0.080008	0
 0.090009	0
 0.10001	0
 0.110011	0
 0.120012	0
 0.130013	0
 0.140014	0
 0.150015	0
 0.160016	0
 0.170017	0
 0.180018	0
 0.190019	0
 0.20002	0
 0.210021	0
 0.220022	0
 0.230023	0
 0.240024	0
 0.250025	0
 0.260026	0
 0.270027	0
 0.280028	0
 0.290029	0
 0.30003	0
 0.310031	0
 0.320032	0
 0.330033	0
 0.340034	0
 0.350035	0
 0.360036	0
 0.370037	0
 0.380038	0
 0.390039	0
 0.40004	0
 0.410041	0
 0.420042	0
 0.430043	0
 0.440044	0
 0.450045	0
 0.460046	0
 0.470047	0
 0.480048	0
 0.490049	0
 0.50005	0
 0.510051	0
 0.520052	0
 0.530053	0
 0.540054	0
 0.550055	0
 0.560056	0
 0.570057	0
 0.580058	0
 0.590059	0
 0.60006	0
 0.610061	0.121553
 0.620062	0.127698
 0.630063	0.133843
 0.640064	0.139988
 0.650065	0.146133
 0.660066	0.152278
 0.670067	0.158423
 0.680068	0.164568
 0.690069	0.170713
 0.70007	0.176862
 0.710071	0.183523
 0.720072	0.190184
 0.730073	0.196846
 0.740074	0.203507
 0.750075	0.210168
 0.760076	0.21683
 0.770077	0.223491
 0.780078	0.230152
 0.790079	0.236813
 0.80008	0.243471
 0.810081	0.249661
 0.820082	0.255851
 0.830083	0.262042
 0.840084	0.268232
 0.850085	0.274422
 0.860086	0.280612
 0.870087	0.286802
 0.880088	0.292993
 0.890089	0.299183
 0.90009	0.305366
 0.910091	0.310761
 0.920092	0.316156
 0.930093	0.32155
 0.940094	0.326945
 0.950095	0.33234
 0.960096	0.337735
 0.970097	0.34313
 0.980098	0.348525
 0.990099	0.353919
 1.0001	0.359301
 1.0101	0.363375
 1.0201	0.367448
 1.0301	0.371522
 1.0401	0.375595
 1.05011	0.379669
 1.06011	0.383742
 1.07011	0.387816
 1.08011	0.39189
 1.09011	0.395963
 1.10011	0.400037
 1.11011	0.40411
 1.12011	0.408184
 1.13011	0.412257
 1.14011	0.416331
 1.15012	0.420405
 1.16012	0.424478
 1.17012	0.428552
 1.18012	0.432625
 1.19012	0.436699
 1.20012	0.440757
 1.21012	0.443586
 1.22012	0.446415
 1.23012	0.449244
 1.24012	0.452073
 1.25013	0.454902
 1.26013	0.457731
 1.27013	0.46056
 1.28013	0.463389
 1.29013	0.466218
 1.30013	0.469047
 1.31013	0.471875
 1.32013	0.474704
 1.33013	0.477533
 1.34013	0.480362
 1.35014	0.483191
 1.36014	0.48602
 1.37014	0.488849
 1.38014	0.491678
 1.39014	0.494507
 1.40014	0.497324
 1.41014	0.499324
 1.42014	0.501323
 1.43014	0.503323
 1.44014	0.505323
 1.45015	0.507322
 1.46015	0.509322
 1.47015	0.511322
 1.48015	0.513321
 1.49015	0.515321
 1.50015	0.517321
 1.51015	0.51932
 1.52015	0.52132
 1.53015	0.52332
 1.54015	0.525319
 1.55016	0.527319
 1.56016	0.529319
 1.57016	0.531318
 1.58016	0.533318
 1.59016	0.535318
 1.60016	0.537311
 1.61016	0.538931
 1.62016	0.540551
 1.63016	0.542171
 1.64016	0.54379
 1.65017	0.54541
 1.66017	0.54703
 1.67017	0.54865
 1.68017	0.550269
 1.69017	0.551889
 1.70017	0.553509
 1.71017	0.555129
 1.72017	0.556748
 1.73017	0.558368
 1.74017	0.559988
 1.75018	0.561608
 1.76018	0.563227
 1.77018	0.564847
 1.78018	0.566467
 1.79018	0.568087
 1.80018	0.5697
 1.81018	0.57099
 1.82018	0.57228
 1.83018	0.57357
 1.84018	0.57486
 1.85019	0.57615
 1.86019	0.577439
 1.87019	0.578729
 1.88019	0.580019
 1.89019	0.581309
 1.90019	0.582599
 1.91019	0.583888
 1.92019	0.585178
 1.93019	0.586468
 1.94019	0.587758
 1.9502	0.589048
 1.9602	0.590338
 1.9702	0.591627
 1.9802	0.592917
 1.9902	0.594207
 2.0002	0.59549
 2.0102	0.596411
 2.0202	0.597332
 2.0302	0.598253
 2.0402	0.599174
 2.05021	0.600096
 2.06021	0.601017
 2.07021	0.601938
 2.08021	0.602859
 2.09021	0.60378
 2.10021	0.604701
 2.11021	0.605623
 2.12021	0.606544
 2.13021	0.607465
 2.14021	0.608386
 2.15022	0.609307
 2.16022	0.610229
 2.17022	0.61115
 2.18022	0.612071
 2.19022	0.612992
 2.20022	0.613909
 2.21022	0.61463
 2.22022	0.615351
 2.23022	0.616072
 2.24022	0.616794
 2.25023	0.617515
 2.26023	0.618236
 2.27023	0.618957
 2.28023	0.619678
 2.29023	0.620399
 2.30023	0.62112
 2.31023	0.621842
 2.32023	0.622563
 2.33023	0.623284
 2.34023	0.624005
 2.35024	0.624726
 2.36024	0.625447
 2.37024	0.626168
 2.38024	0.62689
 2.39024	0.627611
 2.40024	0.628328
 2.41024	0.628912
 2.42024	0.629495
 2.43024	0.630078
 2.44024	0.630661
 2.45025	0.631245
 2.46025	0.631828
 2.47025	0.632411
 2.48025	0.632994
 2.49025	0.633577
 2.50025	0.634161
 2.51025	0.634744
 2.52025	0.635327
 2.53025	0.63591
 2.54025	0.636493
 2.55026	0.637077
 2.56026	0.63766
 2.57026	0.638243
 2.58026	0.638826
 2.59026	0.639409
 2.60026	0.639988
 2.61026	0.640408
 2.62026	0.640827
 2.63026	0.641247
 2.64026	0.641666
 2.65027	0.642086
 2.66027	0.642505
 2.67027	0.642925
 2.68027	0.643344
 2.69027	0.643763
 2.70027	0.644183
 2.71027	0.644602
 2.72027	0.645022
 2.73027	0.645441
 2.74027	0.645861
 2.75028	0.64628
 2.76028	0.6467
 2.77028	0.647119
 2.78028	0.647539
 2.79028	0.647958
 2.80028	0.648375
 2.81028	0.648706
 2.82028	0.649036
 2.83028	0.649367
 2.84028	0.649698
 2.85029	0.650029
 2.86029	0.650359
 2.87029	0.65069
 2.88029	0.651021
 2.89029	0.651351
 2.90029	0.651682
 2.91029	0.652013
 2.92029	0.652344
 2.93029	0.652674
 2.94029	0.653005
 2.9503	0.653336
 2.9603	0.653667
 2.9703	0.653997
 2.9803	0.654328
 2.9903	0.654659
 3.0003	0.654986
 3.0103	0.655212
 3.0203	0.655439
 3.0303	0.655665
 3.0403	0.655891
 3.05031	0.656117
 3.06031	0.656343
 3.07031	0.65657
 3.08031	0.656796
 3.09031	0.657022
 3.10031	0.657248
 3.11031	0.657474
 3.12031	0.657701
 3.13031	0.657927
 3.14031	0.658153
 3.15032	0.658379
 3.16032	0.658605
 3.17032	0.658831
 3.18032	0.659058
 3.19032	0.659284
 3.20032	0.65951
 3.21032	0.659736
 3.22032	0.659962
 3.23032	0.660189
 3.24032	0.660415
 3.25033	0.660641
 3.26033	0.660867
 3.27033	0.661093
 3.28033	0.661319
 3.29033	0.661546
 3.30033	0.661772
 3.31033	0.661998
 3.32033	0.662224
 3.33033	0.66245
 3.34033	0.662677
 3.35034	0.662903
 3.36034	0.663129
 3.37034	0.663355
 3.38034	0.663581
 3.39034	0.663807
 3.40034	0.664034
 3.41034	0.66426
 3.42034	0.664486
 3.43034	0.664712
 3.44034	0.664938
 3.45035	0.665165
 3.46035	0.665391
 3.47035	0.665617
 3.48035	0.665843
 3.49035	0.666069
 3.50035	0.666292
 3.51035	0.666428
 3.52035	0.666565
 3.53035	0.666701
 3.54035	0.666837
 3.55036	0.666973
 3.56036	0.667109
 3.57036	0.667245
 3.58036	0.667382
 3.59036	0.667518
 3.60036	0.667654
 3.61036	0.66779
 3.62036	0.667926
 3.63036	0.668062
 3.64036	0.668199
 3.65037	0.668335
 3.66037	0.668471
 3.67037	0.668607
 3.68037	0.668743
 3.69037	0.668879
 3.70037	0.669016
 3.71037	0.669152
 3.72037	0.669288
 3.73037	0.669424
 3.74037	0.66956
 3.75038	0.669696
 3.76038	0.669833
 3.77038	0.669969
 3.78038	0.670105
 3.79038	0.670241
 3.80038	0.670377
 3.81038	0.670513
 3.82038	0.67065
 3.83038	0.670786
 3.84038	0.670922
 3.85039	0.671058
 3.86039	0.671194
 3.87039	0.67133
 3.88039	0.671466
 3.89039	0.671603
 3.90039	0.671739
 3.91039	0.671875
 3.92039	0.672011
 3.93039	0.672147
 3.94039	0.672283
 3.9504	0.67242
 3.9604	0.672556
 3.9704	0.672692
 3.9804	0.672828
 3.9904	0.672964
 4.0004	0.673099
 4.0104	0.67319
 4.0204	0.673282
 4.0304	0.673374
 4.0404	0.673465
 4.05041	0.673557
 4.06041	0.673648
 4.07041	0.67374
 4.08041	0.673832
 4.09041	0.673923
 4.10041	0.674015
 4.11041	0.674107
 4.12041	0.674198
 4.13041	0.67429
 4.14041	0.674382
 4.15042	0.674473
 4.16042	0.674565
 4.17042	0.674656
 4.18042	0.674748
 4.19042	0.67484
 4.20042	0.674931
 4.21042	0.675023
 4.22042	0.675115
 4.23042	0.675206
 4.24042	0.675298
 4.25043	0.67539
 4.26043	0.675481
 4.27043	0.675573
 4.28043	0.675664
 4.29043	0.675756
 4.30043	0.675848
 4.31043	0.675939
 4.32043	0.676031
 4.33043	0.676123
 4.34043	0.676214
 4.35044	0.676306
 4.36044	0.676398
 4.37044	0.676489
 4.38044	0.676581
 4.39044	0.676672
 4.40044	0.676764
 4.41044	0.676856
 4.42044	0.676947
 4.43044	0.677039
 4.44044	0.677131
 4.45045	0.677222
 4.46045	0.677314
 4.47045	0.677406
 4.48045	0.677497
 4.49045	0.677589
 4.50045	0.677679
 4.51045	0.677749
 4.52045	0.677819
 4.53045	0.677889
 4.54045	0.677958
 4.55046	0.678028
 4.56046	0.678098
 4.57046	0.678167
 4.58046	0.678237
 4.59046	0.678307
 4.60046	0.678376
 4.61046	0.678446
 4.62046	0.678516
 4.63046	0.678585
 4.64046	0.678655
 4.65047	0.678725
 4.66047	0.678795
 4.67047	0.678864
 4.68047	0.678934
 4.69047	0.679004
 4.70047	0.679073
 4.71047	0.679143
 4.72047	0.679213
 4.73047	0.679282
 4.74047	0.679352
 4.75048	0.679422
 4.76048	0.679491
 4.77048	0.679561
 4.78048	0.679631
 4.79048	0.679701
 4.80048	0.67977
 4.81048	0.67984
 4.82048	0.67991
 4.83048	0.679979
 4.84048	0.680049
 4.85049	0.680119
 4.86049	0.680188
 4.87049	0.680258
 4.88049	0.680328
 4.89049	0.680397
 4.90049	0.680467
 4.91049	0.680537
 4.92049	0.680607
 4.93049	0.680676
 4.94049	0.680746
 4.9505	0.680816
 4.9605	0.680885
 4.9705	0.680955
 4.9805	0.681025
 4.9905	0.681094
 5.0005	0.681162
 5.0105	0.681198
 5.0205	0.681234
 5.0305	0.68127
 5.0405	0.681306
 5.05051	0.681342
 5.06051	0.681377
 5.07051	0.681413
 5.08051	0.681449
 5.09051	0.681485
 5.10051	0.681521
 5.11051	0.681556
 5.12051	0.681592
 5.13051	0.681628
 5.14051	0.681664
 5.15052	0.6817
 5.16052	0.681735
 5.17052	0.681771
 5.18052	0.681807
 5.19052	0.681843
 5.20052	0.681879
 5.21052	0.681915
 5.22052	0.68195
 5.23052	0.681986
 5.24052	0.682022
 5.25053	0.682058
 5.26053	0.682094
 5.27053	0.682129
 5.28053	0.682165
 5.29053	0.682201
 5.30053	0.682237
 5.31053	0.682273
 5.32053	0.682309
 5.33053	0.682344
 5.34053	0.68238
 5.35054	0.682416
 5.36054	0.682452
 5.37054	0.682488
 5.38054	0.682523
 5.39054	0.682559
 5.40054	0.682595
 5.41054	0.682631
 5.42054	0.682667
 5.43054	0.682702
 5.44054	0.682738
 5.45055	0.682774
 5.46055	0.68281
 5.47055	0.682846
 5.48055	0.682882
 5.49055	0.682917
 5.50055	0.682952
 5.51055	0.682975
 5.52055	0.682997
 5.53055	0.683019
 5.54055	0.683041
 5.55056	0.683064
 5.56056	0.683086
 5.57056	0.683108
 5.58056	0.683131
 5.59056	0.683153
 5.60056	0.683175
 5.61056	0.683197
 5.62056	0.68322
 5.63056	0.683242
 5.64056	0.683264
 5.65057	0.683286
 5.66057	0.683309
 5.67057	0.683331
 5.68057	0.683353
 5.69057	0.683375
 5.70057	0.683398
 5.71057	0.68342
 5.72057	0.683442
 5.73057	0.683465
 5.74057	0.683487
 5.75058	0.683509
 5.76058	0.683531
 5.77058	0.683554
 5.78058	0.683576
 5.79058	0.683598
 5.80058	0.68362
 5.81058	0.683643
 5.82058	0.683665
 5.83058	0.683687
 5.84058	0.683709
 5.85059	0.683732
 5.86059	0.683754
 5.87059	0.683776
 5.88059	0.683798
 5.89059	0.683821
 5.90059	0.683843
 5.91059	0.683865
 5.92059	0.683888
 5.93059	0.68391
 5.94059	0.683932
 5.9506	0.683954
 5.9606	0.683977
 5.9706	0.683999
 5.9806	0.684021
 5.9906	0.684043
 6.0006	0.684065
 6.0106	0.684077
 6.0206	0.684088
 6.0306	0.6841
 6.0406	0.684111
 6.05061	0.684123
 6.06061	0.684135
 6.07061	0.684146
 6.08061	0.684158
 6.09061	0.68417
 6.10061	0.684181
 6.11061	0.684193
 6.12061	0.684204
 6.13061	0.684216
 6.14061	0.684228
 6.15062	0.684239
 6.16062	0.684251
 6.17062	0.684262
 6.18062	0.684274
 6.19062	0.684286
 6.20062	0.684297
 6.21062	0.684309
 6.22062	0.684321
 6.23062	0.684332
 6.24062	0.684344
 6.25063	0.684355
 6.26063	0.684367
 6.27063	0.684379
 6.28063	0.68439
 6.29063	0.684402
 6.30063	0.684413
 6.31063	0.684425
 6.32063	0.684437
 6.33063	0.684448
 6.34063	0.68446
 6.35064	0.684472
 6.36064	0.684483
 6.37064	0.684495
 6.38064	0.684506
 6.39064	0.684518
 6.40064	0.68453
 6.41064	0.684541
 6.42064	0.684553
 6.43064	0.684564
 6.44064	0.684576
 6.45065	0.684588
 6.46065	0.684599
 6.47065	0.684611
 6.48065	0.684623
 6.49065	0.684634
 6.50065	0.684646
 6.51065	0.684657
 6.52065	0.684669
 6.53065	0.684681
 6.54065	0.684692
 6.55066	0.684704
 6.56066	0.684715
 6.57066	0.684727
 6.58066	0.684739
 6.59066	0.68475
 6.60066	0.684762
 6.61066	0.684774
 6.62066	0.684785
 6.63066	0.684797
 6.64066	0.684808
 6.65067	0.68482
 6.66067	0.684832
 6.67067	0.684843
 6.68067	0.684855
 6.69067	0.684866
 6.70067	0.684878
 6.71067	0.68489
 6.72067	0.684901
 6.73067	0.684913
 6.74067	0.684925
 6.75068	0.684936
 6.76068	0.684948
 6.77068	0.684959
 6.78068	0.684971
 6.79068	0.684983
 6.80068	0.684994
 6.81068	0.685006
 6.82068	0.685017
 6.83068	0.685029
 6.84068	0.685041
 6.85069	0.685052
 6.86069	0.685064
 6.87069	0.685076
 6.88069	0.685087
 6.89069	0.685099
 6.90069	0.68511
 6.91069	0.685122
 6.92069	0.685134
 6.93069	0.685145
 6.94069	0.685157
 6.9507	0.685168
 6.9607	0.68518
 6.9707	0.685192
 6.9807	0.685203
 6.9907	0.685215
 7.0007	0.685226
 7.0107	0.68523
 7.0207	0.685233
 7.0307	0.685237
 7.0407	0.68524
 7.05071	0.685244
 7.06071	0.685247
 7.07071	0.685251
 7.08071	0.685254
 7.09071	0.685258
 7.10071	0.685261
 7.11071	0.685265
 7.12071	0.685269
 7.13071	0.685272
 7.14071	0.685276
 7.15072	0.685279
 7.16072	0.685283
 7.17072	0.685286
 7.18072	0.68529
 7.19072	0.685293
 7.20072	0.685297
 7.21072	0.685301
 7.22072	0.685304
 7.23072	0.685308
 7.24072	0.685311
 7.25073	0.685315
 7.26073	0.685318
 7.27073	0.685322
 7.28073	0.685325
 7.29073	0.685329
 7.30073	0.685332
 7.31073	0.685336
 7.32073	0.68534
 7.33073	0.685343
 7.34073	0.685347
 7.35074	0.68535
 7.36074	0.685354
 7.37074	0.685357
 7.38074	0.685361
 7.39074	0.685364
 7.40074	0.685368
 7.41074	0.685372
 7.42074	0.685375
 7.43074	0.685379
 7.44074	0.685382
 7.45075	0.685386
 7.46075	0.685389
 7.47075	0.685393
 7.48075	0.685396
 7.49075	0.6854
 7.50075	0.685403
 7.51075	0.685407
 7.52075	0.685411
 7.53075	0.685414
 7.54075	0.685418
 7.55076	0.685421
 7.56076	0.685425
 7.57076	0.685428
 7.58076	0.685432
 7.59076	0.685435
 7.60076	0.685439
 7.61076	0.685442
 7.62076	0.685446
 7.63076	0.68545
 7.64076	0.685453
 7.65077	0.685457
 7.66077	0.68546
 7.67077	0.685464
 7.68077	0.685467
 7.69077	0.685471
 7.70077	0.685474
 7.71077	0.685478
 7.72077	0.685482
 7.73077	0.685485
 7.74077	0.685489
 7.75078	0.685492
 7.76078	0.685496
 7.77078	0.685499
 7.78078	0.685503
 7.79078	0.685506
 7.80078	0.68551
 7.81078	0.685513
 7.82078	0.685517
 7.83078	0.685521
 7.84078	0.685524
 7.85079	0.685528
 7.86079	0.685531
 7.87079	0.685535
 7.88079	0.685538
 7.89079	0.685542
 7.90079	0.685545
 7.91079	0.685549
 7.92079	0.685553
 7.93079	0.685556
 7.94079	0.68556
 7.9508	0.685563
 7.9608	0.685567
 7.9708	0.68557
 7.9808	0.685574
 7.9908	0.685577
 8.0008	0.685581
 8.0108	0.685583
 8.0208	0.685584
 8.0308	0.685586
 8.0408	0.685588
 8.05081	0.68559
 8.06081	0.685591
 8.07081	0.685593
 8.08081	0.685595
 8.09081	0.685597
 8.10081	0.685599
 8.11081	0.6856
 8.12081	0.685602
 8.13081	0.685604
 8.14081	0.685606
 8.15082	0.685607
 8.16082	0.685609
 8.17082	0.685611
 8.18082	0.685613
 8.19082	0.685614
 8.20082	0.685616
 8.21082	0.685618
 8.22082	0.68562
 8.23082	0.685622
 8.24082	0.685623
 8.25083	0.685625
 8.26083	0.685627
 8.27083	0.685629
 8.28083	0.68563
 8.29083	0.685632
 8.30083	0.685634
 8.31083	0.685636
 8.32083	0.685638
 8.33083	0.685639
 8.34083	0.685641
 8.35084	0.685643
 8.36084	0.685645
 8.37084	0.685646
 8.38084	0.685648
 8.39084	0.68565
 8.40084	0.685652
 8.41084	0.685654
 8.42084	0.685655
 8.43084	0.685657
 8.44084	0.685659
 8.45085	0.685661
 8.46085	0.685662
 8.47085	0.685664
 8.48085	0.685666
 8.49085	0.685668
 8.50085	0.685669
 8.51085	0.685671
 8.52085	0.685673
 8.53085	0.685675
 8.54085	0.685677
 8.55086	0.685678
 8.56086	0.68568
 8.57086	0.685682
 8.58086	0.685684
 8.59086	0.685685
 8.60086	0.685687
 8.61086	0.685689
 8.62086	0.685691
 8.63086	0.685693
 8.64086	0.685694
 8.65087	0.685696
 8.66087	0.685698
 8.67087	0.6857
 8.68087	0.685701
 8.69087	0.685703
 8.70087	0.685705
 8.71087	0.685707
 8.72087	0.685709
 8.73087	0.68571
 8.74087	0.685712
 8.75088	0.685714
 8.76088	0.685716
 8.77088	0.685717
 8.78088	0.685719
 8.79088	0.685721
 8.80088	0.685723
 8.81088	0.685725
 8.82088	0.685726
 8.83088	0.685728
 8.84088	0.68573
 8.85089	0.685732
 8.86089	0.685733
 8.87089	0.685735
 8.88089	0.685737
 8.89089	0.685739
 8.90089	0.68574
 8.91089	0.685742
 8.92089	0.685744
 8.93089	0.685746
 8.94089	0.685748
 8.9509	0.685749
 8.9609	0.685751
 8.9709	0.685753
 8.9809	0.685755
 8.9909	0.685756
 9.0009	0.685758
 9.0109	0.685759
 9.0209	0.68576
 9.0309	0.685762
 9.0409	0.685763
 9.05091	0.685764
 9.06091	0.685765
 9.07091	0.685766
 9.08091	0.685767
 9.09091	0.685768
 9.10091	0.685769
 9.11091	0.685771
 9.12091	0.685772
 9.13091	0.685773
 9.14091	0.685774
 9.15092	0.685775
 9.16092	0.685776
 9.17092	0.685777
 9.18092	0.685778
 9.19092	0.68578
 9.20092	0.685781
 9.21092	0.685782
 9.22092	0.685783
 9.23092	0.685784
 9.24092	0.685785
 9.25093	0.685786
 9.26093	0.685788
 9.27093	0.685789
 9.28093	0.68579
 9.29093	0.685791
 9.30093	0.685792
 9.31093	0.685793
 9.32093	0.685794
 9.33093	0.685795
 9.34093	0.685797
 9.35094	0.685798
 9.36094	0.685799
 9.37094	0.6858
 9.38094	0.685801
 9.39094	0.685802
 9.40094	0.685803
 9.41094	0.685804
 9.42094	0.685806
 9.43094	0.685807
 9.44094	0.685808
 9.45095	0.685809
 9.46095	0.68581
 9.47095	0.685811
 9.48095	0.685812
 9.49095	0.685814
 9.50095	0.685815
 9.51095	0.685816
 9.52095	0.685817
 9.53095	0.685818
 9.54095	0.685819
 9.55096	0.68582
 9.56096	0.685821
 9.57096	0.685823
 9.58096	0.685824
 9.59096	0.685825
 9.60096	0.685826
 9.61096	0.685827
 9.62096	0.685828
 9.63096	0.685829
 9.64096	0.68583
 9.65097	0.685832
 9.66097	0.685833
 9.67097	0.685834
 9.68097	0.685835
 9.69097	0.685836
 9.70097	0.685837
 9.71097	0.685838
 9.72097	0.685839
 9.73097	0.685841
 9.74097	0.685842
 9.75098	0.685843
 9.76098	0.685844
 9.77098	0.685845
 9.78098	0.685846
 9.79098	0.685847
 9.80098	0.685849
 9.81098	0.68585
 9.82098	0.685851
 9.83098	0.685852
 9.84098	0.685853
 9.85099	0.685854
 9.86099	0.685855
 9.87099	0.685856
 9.88099	0.685858
 9.89099	0.685859
 9.90099	0.68586
 9.91099	0.685861
 9.92099	0.685862
 9.93099	0.685863
 9.94099	0.685864
 9.951	0.685865
 9.961	0.685867
 9.971	0.685868
 9.981	0.685869
 9.991	0.68587
 10.001	0.685871
 10.011	0.685872
 10.021	0.685873
 10.031	0.685874
 10.041	0.685876
 10.051	0.685877
 10.061	0.685878
 10.071	0.685879
 10.081	0.68588
 10.091	0.685881
 10.101	0.685882
 10.111	0.685884
 10.121	0.685885
 10.131	0.685886
 10.141	0.685887
 10.151	0.685888
 10.161	0.685889
 10.171	0.68589
 10.181	0.685891
 10.191	0.685893
 10.201	0.685894
 10.211	0.685895
 10.221	0.685896
 10.231	0.685897
 10.241	0.685898
 10.251	0.685899
 10.261	0.6859
 10.271	0.685902
 10.281	0.685903
 10.291	0.685904
 10.301	0.685905
 10.311	0.685906
 10.321	0.685907
 10.331	0.685908
 10.341	0.685909
 10.351	0.685911
 10.361	0.685912
 10.371	0.685913
 10.381	0.685914
 10.391	0.685915
 10.401	0.685916
 10.411	0.685917
 10.421	0.685919
 10.431	0.68592
 10.441	0.685921
 10.451	0.685922
 10.461	0.685923
 10.471	0.685924
 10.481	0.685925
 10.491	0.685926
 10.5011	0.685928
 10.5111	0.685929
 10.5211	0.68593
 10.5311	0.685931
 10.5411	0.685932
 10.5511	0.685933
 10.5611	0.685934
 10.5711	0.685935
 10.5811	0.685937
 10.5911	0.685938
 10.6011	0.685939
 10.6111	0.68594
 10.6211	0.685941
 10.6311	0.685942
 10.6411	0.685943
 10.6511	0.685944
 10.6611	0.685946
 10.6711	0.685947
 10.6811	0.685948
 10.6911	0.685949
 10.7011	0.68595
 10.7111	0.685951
 10.7211	0.685952
 10.7311	0.685954
 10.7411	0.685955
 10.7511	0.685956
 10.7611	0.685957
 10.7711	0.685958
 10.7811	0.685959
 10.7911	0.68596
 10.8011	0.685961
 10.8111	0.685963
 10.8211	0.685964
 10.8311	0.685965
 10.8411	0.685966
 10.8511	0.685967
 10.8611	0.685968
 10.8711	0.685969
 10.8811	0.68597
 10.8911	0.685972
 10.9011	0.685973
 10.9111	0.685974
 10.9211	0.685975
 10.9311	0.685976
 10.9411	0.685977
 10.9511	0.685978
 10.9611	0.68598
 10.9711	0.685981
 10.9811	0.685982
 10.9911	0.685983
 11.0011	0.685984
 11.0111	0.685985
 11.0211	0.685987
 11.0311	0.685988
 11.0411	0.685989
 11.0511	0.68599
 11.0611	0.685992
 11.0711	0.685993
 11.0811	0.685994
 11.0911	0.685996
 11.1011	0.685997
 11.1111	0.685998
 11.1211	0.686
 11.1311	0.686001
 11.1411	0.686002
 11.1511	0.686003
 11.1611	0.686005
 11.1711	0.686006
 11.1811	0.686007
 11.1911	0.686009
 11.2011	0.68601
 11.2111	0.686011
 11.2211	0.686012
 11.2311	0.686014
 11.2411	0.686015
 11.2511	0.686016
 11.2611	0.686018
 11.2711	0.686019
 11.2811	0.68602
 11.2911	0.686021
 11.3011	0.686023
 11.3111	0.686024
 11.3211	0.686025
 11.3311	0.686027
 11.3411	0.686028
 11.3511	0.686029
 11.3611	0.686031
 11.3711	0.686032
 11.3811	0.686033
 11.3911	0.686034
 11.4011	0.686036
 11.4111	0.686037
 11.4211	0.686038
 11.4311	0.68604
 11.4411	0.686041
 11.4511	0.686042
 11.4611	0.686043
 11.4711	0.686045
 11.4811	0.686046
 11.4911	0.686047
 11.5012	0.686049
 11.5112	0.68605
 11.5212	0.686051
 11.5312	0.686052
 11.5412	0.686054
 11.5512	0.686055
 11.5612	0.686056
 11.5712	0.686058
 11.5812	0.686059
 11.5912	0.68606
 11.6012	0.686061
 11.6112	0.686063
 11.6212	0.686064
 11.6312	0.686065
 11.6412	0.686067
 11.6512	0.686068
 11.6612	0.686069
 11.6712	0.686071
 11.6812	0.686072
 11.6912	0.686073
 11.7012	0.686074
 11.7112	0.686076
 11.7212	0.686077
 11.7312	0.686078
 11.7412	0.68608
 11.7512	0.686081
 11.7612	0.686082
 11.7712	0.686083
 11.7812	0.686085
 11.7912	0.686086
 11.8012	0.686087
 11.8112	0.686089
 11.8212	0.68609
 11.8312	0.686091
 11.8412	0.686092
 11.8512	0.686094
 11.8612	0.686095
 11.8712	0.686096
 11.8812	0.686098
 11.8912	0.686099
 11.9012	0.6861
 11.9112	0.686102
 11.9212	0.686103
 11.9312	0.686104
 11.9412	0.686105
 11.9512	0.686107
 11.9612	0.686108
 11.9712	0.686109
 11.9812	0.686111
 11.9912	0.686112
 12.0012	0.686113
 12.0112	0.686114
 12.0212	0.686114
 12.0312	0.686115
 12.0412	0.686116
 12.0512	0.686116
 12.0612	0.686117
 12.0712	0.686118
 12.0812	0.686118
 12.0912	0.686119
 12.1012	0.68612
 12.1112	0.68612
 12.1212	0.686121
 12.1312	0.686121
 12.1412	0.686122
 12.1512	0.686123
 12.1612	0.686123
 12.1712	0.686124
 12.1812	0.686125
 12.1912	0.686125
 12.2012	0.686126
 12.2112	0.686127
 12.2212	0.686127
 12.2312	0.686128
 12.2412	0.686129
 12.2512	0.686129
 12.2612	0.68613
 12.2712	0.68613
 12.2812	0.686131
 12.2912	0.686132
 12.3012	0.686132
 12.3112	0.686133
 12.3212	0.686134
 12.3312	0.686134
 12.3412	0.686135
 12.3512	0.686136
 12.3612	0.686136
 12.3712	0.686137
 12.3812	0.686138
 12.3912	0.686138
 12.4012	0.686139
 12.4112	0.68614
 12.4212	0.68614
 12.4312	0.686141
 12.4412	0.686141
 12.4512	0.686142
 12.4612	0.686143
 12.4712	0.686143
 12.4812	0.686144
 12.4912	0.686145
 12.5013	0.686145
 12.5113	0.686146
 12.5213	0.686147
 12.5313	0.686147
 12.5413	0.686148
 12.5513	0.686149
 12.5613	0.686149
 12.5713	0.68615
 12.5813	0.68615
 12.5913	0.686151
 12.6013	0.686152
 12.6113	0.686152
 12.6213	0.686153
 12.6313	0.686154
 12.6413	0.686154
 12.6513	0.686155
 12.6613	0.686156
 12.6713	0.686156
 12.6813	0.686157
 12.6913	0.686158
 12.7013	0.686158
 12.7113	0.686159
 12.7213	0.68616
 12.7313	0.68616
 12.7413	0.686161
 12.7513	0.686161
 12.7613	0.686162
 12.7713	0.686163
 12.7813	0.686163
 12.7913	0.686164
 12.8013	0.686165
 12.8113	0.686165
 12.8213	0.686166
 12.8313	0.686167
 12.8413	0.686167
 12.8513	0.686168
 12.8613	0.686169
 12.8713	0.686169
 12.8813	0.68617
 12.8913	0.68617
 12.9013	0.686171
 12.9113	0.686172
 12.9213	0.686172
 12.9313	0.686173
 12.9413	0.686174
 12.9513	0.686174
 12.9613	0.686175
 12.9713	0.686176
 12.9813	0.686176
 12.9913	0.686177
 13.0013	0.686178
 13.0113	0.686179
 13.0213	0.686181
 13.0313	0.686183
 13.0413	0.686184
 13.0513	0.686186
 13.0613	0.686187
 13.0713	0.686189
 13.0813	0.686191
 13.0913	0.686192
 13.1013	0.686194
 13.1113	0.686195
 13.1213	0.686197
 13.1313	0.686199
 13.1413	0.6862
 13.1513	0.686202
 13.1613	0.686204
 13.1713	0.686205
 13.1813	0.686207
 13.1913	0.686208
 13.2013	0.68621
 13.2113	0.686212
 13.2213	0.686213
 13.2313	0.686215
 13.2413	0.686216
 13.2513	0.686218
 13.2613	0.68622
 13.2713	0.686221
 13.2813	0.686223
 13.2913	0.686224
 13.3013	0.686226
 13.3113	0.686228
 13.3213	0.686229
 13.3313	0.686231
 13.3413	0.686233
 13.3513	0.686234
 13.3613	0.686236
 13.3713	0.686237
 13.3813	0.686239
 13.3913	0.686241
 13.4013	0.686242
 13.4113	0.686244
 13.4213	0.686245
 13.4313	0.686247
 13.4413	0.686249
 13.4513	0.68625
 13.4613	0.686252
 13.4713	0.686254
 13.4813	0.686255
 13.4913	0.686257
 13.5014	0.686258
 13.5114	0.68626
 13.5214	0.686262
 13.5314	0.686263
 13.5414	0.686265
 13.5514	0.686266
 13.5614	0.686268
 13.5714	0.68627
 13.5814	0.686271
 13.5914	0.686273
 13.6014	0.686275
 13.6114	0.686276
 13.6214	0.686278
 13.6314	0.686279
 13.6414	0.686281
 13.6514	0.686283
 13.6614	0.686284
 13.6714	0.686286
 13.6814	0.686287
 13.6914	0.686289
 13.7014	0.686291
 13.7114	0.686292
 13.7214	0.686294
 13.7314	0.686295
 13.7414	0.686297
 13.7514	0.686299
 13.7614	0.6863
 13.7714	0.686302
 13.7814	0.686304
 13.7914	0.686305
 13.8014	0.686307
 13.8114	0.686308
 13.8214	0.68631
 13.8314	0.686312
 13.8414	0.686313
 13.8514	0.686315
 13.8614	0.686316
 13.8714	0.686318
 13.8814	0.68632
 13.8914	0.686321
 13.9014	0.686323
 13.9114	0.686325
 13.9214	0.686326
 13.9314	0.686328
 13.9414	0.686329
 13.9514	0.686331
 13.9614	0.686333
 13.9714	0.686334
 13.9814	0.686336
 13.9914	0.686337
 14.0014	0.686339
 14.0114	0.686341
 14.0214	0.686342
 14.0314	0.686344
 14.0414	0.686345
 14.0514	0.686347
 14.0614	0.686349
 14.0714	0.68635
 14.0814	0.686352
 14.0914	0.686354
 14.1014	0.686355
 14.1114	0.686357
 14.1214	0.686358
 14.1314	0.68636
 14.1414	0.686362
 14.1514	0.686363
 14.1614	0.686365
 14.1714	0.686366
 14.1814	0.686368
 14.1914	0.68637
 14.2014	0.686371
 14.2114	0.686373
 14.2214	0.686375
 14.2314	0.686376
 14.2414	0.686378
 14.2514	0.686379
 14.2614	0.686381
 14.2714	0.686383
 14.2814	0.686384
 14.2914	0.686386
 14.3014	0.686387
 14.3114	0.686389
 14.3214	0.686391
 14.3314	0.686392
 14.3414	0.686394
 14.3514	0.686395
 14.3614	0.686397
 14.3714	0.686399
 14.3814	0.6864
 14.3914	0.686402
 14.4014	0.686404
 14.4114	0.686405
 14.4214	0.686407
 14.4314	0.686408
 14.4414	0.68641
 14.4514	0.686412
 14.4614	0.686413
 14.4714	0.686415
 14.4814	0.686416
 14.4914	0.686418
 14.5015	0.68642
 14.5115	0.686421
 14.5215	0.686423
 14.5315	0.686425
 14.5415	0.686426
 14.5515	0.686428
 14.5615	0.686429
 14.5715	0.686431
 14.5815	0.686433
 14.5915	0.686434
 14.6015	0.686436
 14.6115	0.686437
 14.6215	0.686439
 14.6315	0.686441
 14.6415	0.686442
 14.6515	0.686444
 14.6615	0.686446
 14.6715	0.686447
 14.6815	0.686449
 14.6915	0.68645
 14.7015	0.686452
 14.7115	0.686454
 14.7215	0.686455
 14.7315	0.686457
 14.7415	0.686458
 14.7515	0.68646
 14.7615	0.686462
 14.7715	0.686463
 14.7815	0.686465
 14.7915	0.686466
 14.8015	0.686468
 14.8115	0.68647
 14.8215	0.686471
 14.8315	0.686473
 14.8415	0.686475
 14.8515	0.686476
 14.8615	0.686478
 14.8715	0.686479
 14.8815	0.686481
 14.8915	0.686483
 14.9015	0.686484
 14.9115	0.686486
 14.9215	0.686487
 14.9315	0.686489
 14.9415	0.686491
 14.9515	0.686492
 14.9615	0.686494
 14.9715	0.686496
 14.9815	0.686497
 14.9915	0.686499
 15.0015	0.6865
 15.0115	0.686501
 15.0215	0.686501
 15.0315	0.686502
 15.0415	0.686502
 15.0515	0.686503
 15.0615	0.686503
 15.0715	0.686504
 15.0815	0.686504
 15.0915	0.686505
 15.1015	0.686505
 15.1115	0.686506
 15.1215	0.686506
 15.1315	0.686506
 15.1415	0.686507
 15.1515	0.686507
 15.1615	0.686508
 15.1715	0.686508
 15.1815	0.686509
 15.1915	0.686509
 15.2015	0.68651
 15.2115	0.68651
 15.2215	0.686511
 15.2315	0.686511
 15.2415	0.686512
 15.2515	0.686512
 15.2615	0.686513
 15.2715	0.686513
 15.2815	0.686514
 15.2915	0.686514
 15.3015	0.686515
 15.3115	0.686515
 15.3215	0.686516
 15.3315	0.686516
 15.3415	0.686517
 15.3515	0.686517
 15.3615	0.686518
 15.3715	0.686518
 15.3815	0.686519
 15.3915	0.686519
 15.4015	0.68652
 15.4115	0.68652
 15.4215	0.686521
 15.4315	0.686521
 15.4415	0.686521
 15.4515	0.686522
 15.4615	0.686522
 15.4715	0.686523
 15.4815	0.686523
 15.4915	0.686524
 15.5016	0.686524
 15.5116	0.686525
 15.5216	0.686525
 15.5316	0.686526
 15.5416	0.686526
 15.5516	0.686527
 15.5616	0.686527
 15.5716	0.686528
 15.5816	0.686528
 15.5916	0.686529
 15.6016	0.686529
 15.6116	0.68653
 15.6216	0.68653
 15.6316	0.686531
 15.6416	0.686531
 15.6516	0.686532
 15.6616	0.686532
 15.6716	0.686533
 15.6816	0.686533
 15.6916	0.686534
 15.7016	0.686534
 15.7116	0.686535
 15.7216	0.686535
 15.7316	0.686536
 15.7416	0.686536
 15.7516	0.686536
 15.7616	0.686537
 15.7716	0.686537
 15.7816	0.686538
 15.7916	0.686538
 15.8016	0.686539
 15.8116	0.686539
 15.8216	0.68654
 15.8316	0.68654
 15.8416	0.686541
 15.8516	0.686541
 15.8616	0.686542
 15.8716	0.686542
 15.8816	0.686543
 15.8916	0.686543
 15.9016	0.686544
 15.9116	0.686544
 15.9216	0.686545
 15.9316	0.686545
 15.9416	0.686546
 15.9516	0.686546
 15.9616	0.686547
 15.9716	0.686547
 15.9816	0.686548
 15.9916	0.686548
 16.0016	0.686549
 16.0116	0.68655
 16.0216	0.686551
 16.0316	0.686552
 16.0416	0.686553
 16.0516	0.686554
 16.0616	0.686554
 16.0716	0.686555
 16.0816	0.686556
 16.0916	0.686557
 16.1016	0.686558
 16.1116	0.686559
 16.1216	0.68656
 16.1316	0.686561
 16.1416	0.686562
 16.1516	0.686563
 16.1616	0.686564
 16.1716	0.686565
 16.1816	0.686566
 16.1916	0.686567
 16.2016	0.686568
 16.2116	0.686569
 16.2216	0.68657
 16.2316	0.686571
 16.2416	0.686572
 16.2516	0.686573
 16.2616	0.686574
 16.2716	0.686575
 16.2816	0.686576
 16.2916	0.686577
 16.3016	0.686578
 16.3116	0.686579
 16.3216	0.68658
 16.3316	0.686581
 16.3416	0.686582
 16.3516	0.686583
 16.3616	0.686584
 16.3716	0.686584
 16.3816	0.686585
 16.3916	0.686586
 16.4016	0.686587
 16.4116	0.686588
 16.4216	0.686589
 16.4316	0.68659
 16.4416	0.686591
 16.4516	0.686592
 16.4616	0.686593
 16.4716	0.686594
 16.4816	0.686595
 16.4916	0.686596
 16.5017	0.686597
 16.5117	0.686598
 16.5217	0.686599
 16.5317	0.6866
 16.5417	0.686601
 16.5517	0.686602
 16.5617	0.686603
 16.5717	0.686604
 16.5817	0.686605
 16.5917	0.686606
 16.6017	0.686607
 16.6117	0.686608
 16.6217	0.686609
 16.6317	0.68661
 16.6417	0.686611
 16.6517	0.686612
 16.6617	0.686613
 16.6717	0.686614
 16.6817	0.686614
 16.6917	0.686615
 16.7017	0.686616
 16.7117	0.686617
 16.7217	0.686618
 16.7317	0.686619
 16.7417	0.68662
 16.7517	0.686621
 16.7617	0.686622
 16.7717	0.686623
 16.7817	0.686624
 16.7917	0.686625
 16.8017	0.686626
 16.8117	0.686627
 16.8217	0.686628
 16.8317	0.686629
 16.8417	0.68663
 16.8517	0.686631
 16.8617	0.686632
 16.8717	0.686633
 16.8817	0.686634
 16.8917	0.686635
 16.9017	0.686636
 16.9117	0.686637
 16.9217	0.686638
 16.9317	0.686639
 16.9417	0.68664
 16.9517	0.686641
 16.9617	0.686642
 16.9717	0.686643
 16.9817	0.686644
 16.9917	0.686644
 17.0017	0.686645
 17.0117	0.686646
 17.0217	0.686647
 17.0317	0.686648
 17.0417	0.686649
 17.0517	0.686649
 17.0617	0.68665
 17.0717	0.686651
 17.0817	0.686652
 17.0917	0.686653
 17.1017	0.686653
 17.1117	0.686654
 17.1217	0.686655
 17.1317	0.686656
 17.1417	0.686657
 17.1517	0.686658
 17.1617	0.686658
 17.1717	0.686659
 17.1817	0.68666
 17.1917	0.686661
 17.2017	0.686662
 17.2117	0.686662
 17.2217	0.686663
 17.2317	0.686664
 17.2417	0.686665
 17.2517	0.686666
 17.2617	0.686666
 17.2717	0.686667
 17.2817	0.686668
 17.2917	0.686669
 17.3017	0.68667
 17.3117	0.68667
 17.3217	0.686671
 17.3317	0.686672
 17.3417	0.686673
 17.3517	0.686674
 17.3617	0.686674
 17.3717	0.686675
 17.3817	0.686676
 17.3917	0.686677
 17.4017	0.686678
 17.4117	0.686678
 17.4217	0.686679
 17.4317	0.68668
 17.4417	0.686681
 17.4517	0.686682
 17.4617	0.686683
 17.4717	0.686683
 17.4817	0.686684
 17.4917	0.686685
 17.5018	0.686686
 17.5118	0.686687
 17.5218	0.686687
 17.5318	0.686688
 17.5418	0.686689
 17.5518	0.68669
 17.5618	0.686691
 17.5718	0.686691
 17.5818	0.686692
 17.5918	0.686693
 17.6018	0.686694
 17.6118	0.686695
 17.6218	0.686695
 17.6318	0.686696
 17.6418	0.686697
 17.6518	0.686698
 17.6618	0.686699
 17.6718	0.686699
 17.6818	0.6867
 17.6918	0.686701
 17.7018	0.686702
 17.7118	0.686703
 17.7218	0.686704
 17.7318	0.686704
 17.7418	0.686705
 17.7518	0.686706
 17.7618	0.686707
 17.7718	0.686708
 17.7818	0.686708
 17.7918	0.686709
 17.8018	0.68671
 17.8118	0.686711
 17.8218	0.686712
 17.8318	0.686712
 17.8418	0.686713
 17.8518	0.686714
 17.8618	0.686715
 17.8718	0.686716
 17.8818	0.686716
 17.8918	0.686717
 17.9018	0.686718
 17.9118	0.686719
 17.9218	0.68672
 17.9318	0.68672
 17.9418	0.686721
 17.9518	0.686722
 17.9618	0.686723
 17.9718	0.686724
 17.9818	0.686724
 17.9918	0.686725
 18.0018	0.686726
 18.0118	0.686727
 18.0218	0.686728
 18.0318	0.68673
 18.0418	0.686731
 18.0518	0.686732
 18.0618	0.686733
 18.0718	0.686734
 18.0818	0.686735
 18.0918	0.686736
 18.1018	0.686737
 18.1118	0.686739
 18.1218	0.68674
 18.1318	0.686741
 18.1418	0.686742
 18.1518	0.686743
 18.1618	0.686744
 18.1718	0.686745
 18.1818	0.686746
 18.1918	0.686748
 18.2018	0.686749
 18.2118	0.68675
 18.2218	0.686751
 18.2318	0.686752
 18.2418	0.686753
 18.2518	0.686754
 18.2618	0.686756
 18.2718	0.686757
 18.2818	0.686758
 18.2918	0.686759
 18.3018	0.68676
 18.3118	0.686761
 18.3218	0.686762
 18.3318	0.686763
 18.3418	0.686765
 18.3518	0.686766
 18.3618	0.686767
 18.3718	0.686768
 18.3818	0.686769
 18.3918	0.68677
 18.4018	0.686771
 18.4118	0.686772
 18.4218	0.686774
 18.4318	0.686775
 18.4418	0.686776
 18.4518	0.686777
 18.4618	0.686778
 18.4718	0.686779
 18.4818	0.68678
 18.4918	0.686781
 18.5019	0.686783
 18.5119	0.686784
 18.5219	0.686785
 18.5319	0.686786
 18.5419	0.686787
 18.5519	0.686788
 18.5619	0.686789
 18.5719	0.686791
 18.5819	0.686792
 18.5919	0.686793
 18.6019	0.686794
 18.6119	0.686795
 18.6219	0.686796
 18.6319	0.686797
 18.6419	0.686798
 18.6519	0.6868
 18.6619	0.686801
 18.6719	0.686802
 18.6819	0.686803
 18.6919	0.686804
 18.7019	0.686805
 18.7119	0.686806
 18.7219	0.686807
 18.7319	0.686809
 18.7419	0.68681
 18.7519	0.686811
 18.7619	0.686812
 18.7719	0.686813
 18.7819	0.686814
 18.7919	0.686815
 18.8019	0.686816
 18.8119	0.686818
 18.8219	0.686819
 18.8319	0.68682
 18.8419	0.686821
 18.8519	0.686822
 18.8619	0.686823
 18.8719	0.686824
 18.8819	0.686826
 18.8919	0.686827
 18.9019	0.686828
 18.9119	0.686829
 18.9219	0.68683
 18.9319	0.686831
 18.9419	0.686832
 18.9519	0.686833
 18.9619	0.686835
 18.9719	0.686836
 18.9819	0.686837
 18.9919	0.686838
 19.0019	0.686839
 19.0119	0.68684
 19.0219	0.686841
 19.0319	0.686841
 19.0419	0.686842
 19.0519	0.686843
 19.0619	0.686844
 19.0719	0.686845
 19.0819	0.686845
 19.0919	0.686846
 19.1019	0.686847
 19.1119	0.686848
 19.1219	0.686849
 19.1319	0.68685
 19.1419	0.68685
 19.1519	0.686851
 19.1619	0.686852
 19.1719	0.686853
 19.1819	0.686854
 19.1919	0.686854
 19.2019	0.686855
 19.2119	0.686856
 19.2219	0.686857
 19.2319	0.686858
 19.2419	0.686858
 19.2519	0.686859
 19.2619	0.68686
 19.2719	0.686861
 19.2819	0.686862
 19.2919	0.686862
 19.3019	0.686863
 19.3119	0.686864
 19.3219	0.686865
 19.3319	0.686866
 19.3419	0.686866
 19.3519	0.686867
 19.3619	0.686868
 19.3719	0.686869
 19.3819	0.68687
 19.3919	0.68687
 19.4019	0.686871
 19.4119	0.686872
 19.4219	0.686873
 19.4319	0.686874
 19.4419	0.686875
 19.4519	0.686875
 19.4619	0.686876
 19.4719	0.686877
 19.4819	0.686878
 19.4919	0.686879
 19.502	0.686879
 19.512	0.68688
 19.522	0.686881
 19.532	0.686882
 19.542	0.686883
 19.552	0.686883
 19.562	0.686884
 19.572	0.686885
 19.582	0.686886
 19.592	0.686887
 19.602	0.686887
 19.612	0.686888
 19.622	0.686889
 19.632	0.68689
 19.642	0.686891
 19.652	0.686891
 19.662	0.686892
 19.672	0.686893
 19.682	0.686894
 19.692	0.686895
 19.702	0.686895
 19.712	0.686896
 19.722	0.686897
 19.732	0.686898
 19.742	0.686899
 19.752	0.6869
 19.762	0.6869
 19.772	0.686901
 19.782	0.686902
 19.792	0.686903
 19.802	0.686904
 19.812	0.686904
 19.822	0.686905
 19.832	0.686906
 19.842	0.686907
 19.852	0.686908
 19.862	0.686908
 19.872	0.686909
 19.882	0.68691
 19.892	0.686911
 19.902	0.686912
 19.912	0.686912
 19.922	0.686913
 19.932	0.686914
 19.942	0.686915
 19.952	0.686916
 19.962	0.686916
 19.972	0.686917
 19.982	0.686918
 19.992	0.686919
 20.002	0.68692
 20.012	0.68692
 20.022	0.686921
 20.032	0.686921
 20.042	0.686922
 20.052	0.686923
 20.062	0.686923
 20.072	0.686924
 20.082	0.686924
 20.092	0.686925
 20.102	0.686925
 20.112	0.686926
 20.122	0.686927
 20.132	0.686927
 20.142	0.686928
 20.152	0.686928
 20.162	0.686929
 20.172	0.68693
 20.182	0.68693
 20.192	0.686931
 20.202	0.686931
 20.212	0.686932
 20.222	0.686932
 20.232	0.686933
 20.242	0.686934
 20.252	0.686934
 20.262	0.686935
 20.272	0.686935
 20.282	0.686936
 20.292	0.686937
 20.302	0.686937
 20.312	0.686938
 20.322	0.686938
 20.332	0.686939
 20.342	0.686939
 20.352	0.68694
 20.362	0.686941
 20.372	0.686941
 20.382	0.686942
 20.392	0.686942
 20.402	0.686943
 20.412	0.686943
 20.422	0.686944
 20.432	0.686945
 20.442	0.686945
 20.452	0.686946
 20.462	0.686946
 20.472	0.686947
 20.482	0.686948
 20.492	0.686948
 20.5021	0.686949
 20.5121	0.686949
 20.5221	0.68695
 20.5321	0.68695
 20.5421	0.686951
 20.5521	0.686952
 20.5621	0.686952
 20.5721	0.686953
 20.5821	0.686953
 20.5921	0.686954
 20.6021	0.686955
 20.6121	0.686955
 20.6221	0.686956
 20.6321	0.686956
 20.6421	0.686957
 20.6521	0.686957
 20.6621	0.686958
 20.6721	0.686959
 20.6821	0.686959
 20.6921	0.68696
 20.7021	0.68696
 20.7121	0.686961
 20.7221	0.686961
 20.7321	0.686962
 20.7421	0.686963
 20.7521	0.686963
 20.7621	0.686964
 20.7721	0.686964
 20.7821	0.686965
 20.7921	0.686966
 20.8021	0.686966
 20.8121	0.686967
 20.8221	0.686967
 20.8321	0.686968
 20.8421	0.686968
 20.8521	0.686969
 20.8621	0.68697
 20.8721	0.68697
 20.8821	0.686971
 20.8921	0.686971
 20.9021	0.686972
 20.9121	0.686973
 20.9221	0.686973
 20.9321	0.686974
 20.9421	0.686974
 20.9521	0.686975
 20.9621	0.686975
 20.9721	0.686976
 20.9821	0.686977
 20.9921	0.686977
 21.0021	0.686978
 21.0121	0.686978
 21.0221	0.686979
 21.0321	0.686979
 21.0421	0.68698
 21.0521	0.686981
 21.0621	0.686981
 21.0721	0.686982
 21.0821	0.686982
 21.0921	0.686983
 21.1021	0.686984
 21.1121	0.686984
 21.1221	0.686985
 21.1321	0.686985
 21.1421	0.686986
 21.1521	0.686986
 21.1621	0.686987
 21.1721	0.686988
 21.1821	0.686988
 21.1921	0.686989
 21.2021	0.686989
 21.2121	0.68699
 21.2221	0.686991
 21.2321	0.686991
 21.2421	0.686992
 21.2521	0.686992
 21.2621	0.686993
 21.2721	0.686993
 21.2821	0.686994
 21.2921	0.686995
 21.3021	0.686995
 21.3121	0.686996
 21.3221	0.686996
 21.3321	0.686997
 21.3421	0.686997
 21.3521	0.686998
 21.3621	0.686999
 21.3721	0.686999
 21.3821	0.687
 21.3921	0.687
 21.4021	0.687001
 21.4121	0.687002
 21.4221	0.687002
 21.4321	0.687003
 21.4421	0.687003
 21.4521	0.687004
 21.4621	0.687004
 21.4721	0.687005
 21.4821	0.687006
 21.4921	0.687006
 21.5022	0.687007
 21.5122	0.687007
 21.5222	0.687008
 21.5322	0.687009
 21.5422	0.687009
 21.5522	0.68701
 21.5622	0.68701
 21.5722	0.687011
 21.5822	0.687011
 21.5922	0.687012
 21.6022	0.687013
 21.6122	0.687013
 21.6222	0.687014
 21.6322	0.687014
 21.6422	0.687015
 21.6522	0.687015
 21.6622	0.687016
 21.6722	0.687017
 21.6822	0.687017
 21.6922	0.687018
 21.7022	0.687018
 21.7122	0.687019
 21.7222	0.68702
 21.7322	0.68702
 21.7422	0.687021
 21.7522	0.687021
 21.7622	0.687022
 21.7722	0.687022
 21.7822	0.687023
 21.7922	0.687024
 21.8022	0.687024
 21.8122	0.687025
 21.8222	0.687025
 21.8322	0.687026
 21.8422	0.687027
 21.8522	0.687027
 21.8622	0.687028
 21.8722	0.687028
 21.8822	0.687029
 21.8922	0.687029
 21.9022	0.68703
 21.9122	0.687031
 21.9222	0.687031
 21.9322	0.687032
 21.9422	0.687032
 21.9522	0.687033
 21.9622	0.687033
 21.9722	0.687034
 21.9822	0.687035
 21.9922	0.687035
 22.0022	0.687036
 22.0122	0.687036
 22.0222	0.687037
 22.0322	0.687038
 22.0422	0.687038
 22.0522	0.687039
 22.0622	0.687039
 22.0722	0.68704
 22.0822	0.68704
 22.0922	0.687041
 22.1022	0.687042
 22.1122	0.687042
 22.1222	0.687043
 22.1322	0.687043
 22.1422	0.687044
 22.1522	0.687045
 22.1622	0.687045
 22.1722	0.687046
 22.1822	0.687046
 22.1922	0.687047
 22.2022	0.687047
 22.2122	0.687048
 22.2222	0.687049
 22.2322	0.687049
 22.2422	0.68705
 22.2522	0.68705
 22.2622	0.687051
 22.2722	0.687051
 22.2822	0.687052
 22.2922	0.687053
 22.3022	0.687053
 22.3122	0.687054
 22.3222	0.687054
 22.3322	0.687055
 22.3422	0.687056
 22.3522	0.687056
 22.3622	0.687057
 22.3722	0.687057
 22.3822	0.687058
 22.3922	0.687058
 22.4022	0.687059
 22.4122	0.68706
 22.4222	0.68706
 22.4322	0.687061
 22.4422	0.687061
 22.4522	0.687062
 22.4622	0.687063
 22.4722	0.687063
 22.4822	0.687064
 22.4922	0.687064
 22.5023	0.687065
 22.5123	0.687065
 22.5223	0.687066
 22.5323	0.687067
 22.5423	0.687067
 22.5523	0.687068
 22.5623	0.687068
 22.5723	0.687069
 22.5823	0.687069
 22.5923	0.68707
 22.6023	0.687071
 22.6123	0.687071
 22.6223	0.687072
 22.6323	0.687072
 22.6423	0.687073
 22.6523	0.687074
 22.6623	0.687074
 22.6723	0.687075
 22.6823	0.687075
 22.6923	0.687076
 22.7023	0.687076
 22.7123	0.687077
 22.7223	0.687078
 22.7323	0.687078
 22.7423	0.687079
 22.7523	0.687079
 22.7623	0.68708
 22.7723	0.687081
 22.7823	0.687081
 22.7923	0.687082
 22.8023	0.687082
 22.8123	0.687083
 22.8223	0.687083
 22.8323	0.687084
 22.8423	0.687085
 22.8523	0.687085
 22.8623	0.687086
 22.8723	0.687086
 22.8823	0.687087
 22.8923	0.687088
 22.9023	0.687088
 22.9123	0.687089
 22.9223	0.687089
 22.9323	0.68709
 22.9423	0.68709
 22.9523	0.687091
 22.9623	0.687092
 22.9723	0.687092
 22.9823	0.687093
 22.9923	0.687093
 23.0023	0.687094
 23.0123	0.687094
 23.0223	0.687095
 23.0323	0.687096
 23.0423	0.687096
 23.0523	0.687097
 23.0623	0.687097
 23.0723	0.687098
 23.0823	0.687099
 23.0923	0.687099
 23.1023	0.6871
 23.1123	0.6871
 23.1223	0.687101
 23.1323	0.687101
 23.1423	0.687102
 23.1523	0.687103
 23.1623	0.687103
 23.1723	0.687104
 23.1823	0.687104
 23.1923	0.687105
 23.2023	0.687106
 23.2123	0.687106
 23.2223	0.687107
 23.2323	0.687107
 23.2423	0.687108
 23.2523	0.687108
 23.2623	0.687109
 23.2723	0.68711
 23.2823	0.68711
 23.2923	0.687111
 23.3023	0.687111
 23.3123	0.687112
 23.3223	0.687112
 23.3323	0.687113
 23.3423	0.687114
 23.3523	0.687114
 23.3623	0.687115
 23.3723	0.687115
 23.3823	0.687116
 23.3923	0.687117
 23.4023	0.687117
 23.4123	0.687118
 23.4223	0.687118
 23.4323	0.687119
 23.4423	0.687119
 23.4523	0.68712
 23.4623	0.687121
 23.4723	0.687121
 23.4823	0.687122
 23.4923	0.687122
 23.5024	0.687123
 23.5124	0.687124
 23.5224	0.687124
 23.5324	0.687125
 23.5424	0.687125
 23.5524	0.687126
 23.5624	0.687126
 23.5724	0.687127
 23.5824	0.687128
 23.5924	0.687128
 23.6024	0.687129
 23.6124	0.687129
 23.6224	0.68713
 23.6324	0.68713
 23.6424	0.687131
 23.6524	0.687132
 23.6624	0.687132
 23.6724	0.687133
 23.6824	0.687133
 23.6924	0.687134
 23.7024	0.687135
 23.7124	0.687135
 23.7224	0.687136
 23.7324	0.687136
 23.7424	0.687137
 23.7524	0.687137
 23.7624	0.687138
 23.7724	0.687139
 23.7824	0.687139
 23.7924	0.68714
 23.8024	0.68714
 23.8124	0.687141
 23.8224	0.687142
 23.8324	0.687142
 23.8424	0.687143
 23.8524	0.687143
 23.8624	0.687144
 23.8724	0.687144
 23.8824	0.687145
 23.8924	0.687146
 23.9024	0.687146
 23.9124	0.687147
 23.9224	0.687147
 23.9324	0.687148
 23.9424	0.687148
 23.9524	0.687149
 23.9624	0.68715
 23.9724	0.68715
 23.9824	0.687151
 23.9924	0.687151
 24.0024	0.687152
 24.0124	0.687153
 24.0224	0.687153
 24.0324	0.687154
 24.0424	0.687154
 24.0524	0.687155
 24.0624	0.687155
 24.0724	0.687156
 24.0824	0.687157
 24.0924	0.687157
 24.1024	0.687158
 24.1124	0.687158
 24.1224	0.687159
 24.1324	0.68716
 24.1424	0.68716
 24.1524	0.687161
 24.1624	0.687161
 24.1724	0.687162
 24.1824	0.687162
 24.1924	0.687163
 24.2024	0.687164
 24.2124	0.687164
 24.2224	0.687165
 24.2324	0.687165
 24.2424	0.687166
 24.2524	0.687166
 24.2624	0.687167
 24.2724	0.687168
 24.2824	0.687168
 24.2924	0.687169
 24.3024	0.687169
 24.3124	0.68717
 24.3224	0.687171
 24.3324	0.687171
 24.3424	0.687172
 24.3524	0.687172
 24.3624	0.687173
 24.3724	0.687173
 24.3824	0.687174
 24.3924	0.687175
 24.4024	0.687175
 24.4124	0.687176
 24.4224	0.687176
 24.4324	0.687177
 24.4424	0.687178
 24.4524	0.687178
 24.4624	0.687179
 24.4724	0.687179
 24.4824	0.68718
 24.4924	0.68718
 24.5025	0.687181
 24.5125	0.687182
 24.5225	0.687182
 24.5325	0.687183
 24.5425	0.687183
 24.5525	0.687184
 24.5625	0.687184
 24.5725	0.687185
 24.5825	0.687186
 24.5925	0.687186
 24.6025	0.687187
 24.6125	0.687187
 24.6225	0.687188
 24.6325	0.687189
 24.6425	0.687189
 24.6525	0.68719
 24.6625	0.68719
 24.6725	0.687191
 24.6825	0.687191
 24.6925	0.687192
 24.7025	0.687193
 24.7125	0.687193
 24.7225	0.687194
 24.7325	0.687194
 24.7425	0.687195
 24.7525	0.687196
 24.7625	0.687196
 24.7725	0.687197
 24.7825	0.687197
 24.7925	0.687198
 24.8025	0.687198
 24.8125	0.687199
 24.8225	0.6872
 24.8325	0.6872
 24.8425	0.687201
 24.8525	0.687201
 24.8625	0.687202
 24.8725	0.687202
 24.8825	0.687203
 24.8925	0.687204
 24.9025	0.687204
 24.9125	0.687205
 24.9225	0.687205
 24.9325	0.687206
 24.9425	0.687207
 24.9525	0.687207
 24.9625	0.687208
 24.9725	0.687208
 24.9825	0.687209
 24.9925	0.687209
 25.0025	0.68721
 25.0125	0.687211
 25.0225	0.687212
 25.0325	0.687213
 25.0425	0.687214
 25.0525	0.687214
 25.0625	0.687215
 25.0725	0.687216
 25.0825	0.687217
 25.0925	0.687218
 25.1025	0.687219
 25.1125	0.68722
 25.1225	0.687221
 25.1325	0.687221
 25.1425	0.687222
 25.1525	0.687223
 25.1625	0.687224
 25.1725	0.687225
 25.1825	0.687226
 25.1925	0.687227
 25.2025	0.687228
 25.2125	0.687228
 25.2225	0.687229
 25.2325	0.68723
 25.2425	0.687231
 25.2525	0.687232
 25.2625	0.687233
 25.2725	0.687234
 25.2825	0.687235
 25.2925	0.687235
 25.3025	0.687236
 25.3125	0.687237
 25.3225	0.687238
 25.3325	0.687239
 25.3425	0.68724
 25.3525	0.687241
 25.3625	0.687241
 25.3725	0.687242
 25.3825	0.687243
 25.3925	0.687244
 25.4025	0.687245
 25.4125	0.687246
 25.4225	0.687247
 25.4325	0.687248
 25.4425	0.687248
 25.4525	0.687249
 25.4625	0.68725
 25.4725	0.687251
 25.4825	0.687252
 25.4925	0.687253
 25.5026	0.687254
 25.5126	0.687255
 25.5226	0.687255
 25.5326	0.687256
 25.5426	0.687257
 25.5526	0.687258
 25.5626	0.687259
 25.5726	0.68726
 25.5826	0.687261
 25.5926	0.687262
 25.6026	0.687262
 25.6126	0.687263
 25.6226	0.687264
 25.6326	0.687265
 25.6426	0.687266
 25.6526	0.687267
 25.6626	0.687268
 25.6726	0.687268
 25.6826	0.687269
 25.6926	0.68727
 25.7026	0.687271
 25.7126	0.687272
 25.7226	0.687273
 25.7326	0.687274
 25.7426	0.687275
 25.7526	0.687275
 25.7626	0.687276
 25.7726	0.687277
 25.7826	0.687278
 25.7926	0.687279
 25.8026	0.68728
 25.8126	0.687281
 25.8226	0.687282
 25.8326	0.687282
 25.8426	0.687283
 25.8526	0.687284
 25.8626	0.687285
 25.8726	0.687286
 25.8826	0.687287
 25.8926	0.687288
 25.9026	0.687289
 25.9126	0.687289
 25.9226	0.68729
 25.9326	0.687291
 25.9426	0.687292
 25.9526	0.687293
 25.9626	0.687294
 25.9726	0.687295
 25.9826	0.687295
 25.9926	0.687296
 26.0026	0.687297
 26.0126	0.687298
 26.0226	0.687299
 26.0326	0.6873
 26.0426	0.687301
 26.0526	0.687302
 26.0626	0.687302
 26.0726	0.687303
 26.0826	0.687304
 26.0926	0.687305
 26.1026	0.687306
 26.1126	0.687307
 26.1226	0.687308
 26.1326	0.687309
 26.1426	0.687309
 26.1526	0.68731
 26.1626	0.687311
 26.1726	0.687312
 26.1826	0.687313
 26.1926	0.687314
 26.2026	0.687315
 26.2126	0.687316
 26.2226	0.687316
 26.2326	0.687317
 26.2426	0.687318
 26.2526	0.687319
 26.2626	0.68732
 26.2726	0.687321
 26.2826	0.687322
 26.2926	0.687322
 26.3026	0.687323
 26.3126	0.687324
 26.3226	0.687325
 26.3326	0.687326
 26.3426	0.687327
 26.3526	0.687328
 26.3626	0.687329
 26.3726	0.687329
 26.3826	0.68733
 26.3926	0.687331
 26.4026	0.687332
 26.4126	0.687333
 26.4226	0.687334
 26.4326	0.687335
 26.4426	0.687336
 26.4526	0.687336
 26.4626	0.687337
 26.4726	0.687338
 26.4826	0.687339
 26.4926	0.68734
 26.5027	0.687341
 26.5127	0.687342
 26.5227	0.687343
 26.5327	0.687343
 26.5427	0.687344
 26.5527	0.687345
 26.5627	0.687346
 26.5727	0.687347
 26.5827	0.687348
 26.5927	0.687349
 26.6027	0.687349
 26.6127	0.68735
 26.6227	0.687351
 26.6327	0.687352
 26.6427	0.687353
 26.6527	0.687354
 26.6627	0.687355
 26.6727	0.687356
 26.6827	0.687356
 26.6927	0.687357
 26.7027	0.687358
 26.7127	0.687359
 26.7227	0.68736
 26.7327	0.687361
 26.7427	0.687362
 26.7527	0.687363
 26.7627	0.687363
 26.7727	0.687364
 26.7827	0.687365
 26.7927	0.687366
 26.8027	0.687367
 26.8127	0.687368
 26.8227	0.687369
 26.8327	0.68737
 26.8427	0.68737
 26.8527	0.687371
 26.8627	0.687372
 26.8727	0.687373
 26.8827	0.687374
 26.8927	0.687375
 26.9027	0.687376
 26.9127	0.687377
 26.9227	0.687377
 26.9327	0.687378
 26.9427	0.687379
 26.9527	0.68738
 26.9627	0.687381
 26.9727	0.687382
 26.9827	0.687383
 26.9927	0.687383
 27.0027	0.687384
 27.0127	0.687385
 27.0227	0.687386
 27.0327	0.687387
 27.0427	0.687388
 27.0527	0.687389
 27.0627	0.68739
 27.0727	0.68739
 27.0827	0.687391
 27.0927	0.687392
 27.1027	0.687393
 27.1127	0.687394
 27.1227	0.687395
 27.1327	0.687396
 27.1427	0.687397
 27.1527	0.687397
 27.1627	0.687398
 27.1727	0.687399
 27.1827	0.6874
 27.1927	0.687401
 27.2027	0.687402
 27.2127	0.687403
 27.2227	0.687404
 27.2327	0.687404
 27.2427	0.687405
 27.2527	0.687406
 27.2627	0.687407
 27.2727	0.687408
 27.2827	0.687409
 27.2927	0.68741
 27.3027	0.68741
 27.3127	0.687411
 27.3227	0.687412
 27.3327	0.687413
 27.3427	0.687414
 27.3527	0.687415
 27.3627	0.687416
 27.3727	0.687417
 27.3827	0.687417
 27.3927	0.687418
 27.4027	0.687419
 27.4127	0.68742
 27.4227	0.687421
 27.4327	0.687422
 27.4427	0.687423
 27.4527	0.687424
 27.4627	0.687424
 27.4727	0.687425
 27.4827	0.687426
 27.4927	0.687427
 27.5028	0.687428
 27.5128	0.687429
 27.5228	0.68743
 27.5328	0.687431
 27.5428	0.687431
 27.5528	0.687432
 27.5628	0.687433
 27.5728	0.687434
 27.5828	0.687435
 27.5928	0.687436
 27.6028	0.687437
 27.6128	0.687437
 27.6228	0.687438
 27.6328	0.687439
 27.6428	0.68744
 27.6528	0.687441
 27.6628	0.687442
 27.6728	0.687443
 27.6828	0.687444
 27.6928	0.687444
 27.7028	0.687445
 27.7128	0.687446
 27.7228	0.687447
 27.7328	0.687448
 27.7428	0.687449
 27.7528	0.68745
 27.7628	0.687451
 27.7728	0.687451
 27.7828	0.687452
 27.7928	0.687453
 27.8028	0.687454
 27.8128	0.687455
 27.8228	0.687456
 27.8328	0.687457
 27.8428	0.687458
 27.8528	0.687458
 27.8628	0.687459
 27.8728	0.68746
 27.8828	0.687461
 27.8928	0.687462
 27.9028	0.687463
 27.9128	0.687464
 27.9228	0.687464
 27.9328	0.687465
 27.9428	0.687466
 27.9528	0.687467
 27.9628	0.687468
 27.9728	0.687469
 27.9828	0.68747
 27.9928	0.687471
 28.0028	0.687471
 28.0128	0.687472
 28.0228	0.687473
 28.0328	0.687474
 28.0428	0.687475
 28.0528	0.687476
 28.0628	0.687477
 28.0728	0.687478
 28.0828	0.687478
 28.0928	0.687479
 28.1028	0.68748
 28.1128	0.687481
 28.1228	0.687482
 28.1328	0.687483
 28.1428	0.687484
 28.1528	0.687485
 28.1628	0.687485
 28.1728	0.687486
 28.1828	0.687487
 28.1928	0.687488
 28.2028	0.687489
 28.2128	0.68749
 28.2228	0.687491
 28.2328	0.687491
 28.2428	0.687492
 28.2528	0.687493
 28.2628	0.687494
 28.2728	0.687495
 28.2828	0.687496
 28.2928	0.687497
 28.3028	0.687498
 28.3128	0.687498
 28.3228	0.687499
 28.3328	0.6875
 28.3428	0.687501
 28.3528	0.687502
 28.3628	0.687503
 28.3728	0.687504
 28.3828	0.687505
 28.3928	0.687505
 28.4028	0.687506
 28.4128	0.687507
 28.4228	0.687508
 28.4328	0.687509
 28.4428	0.68751
 28.4528	0.687511
 28.4628	0.687512
 28.4728	0.687512
 28.4828	0.687513
 28.4928	0.687514
 28.5029	0.687515
 28.5129	0.687516
 28.5229	0.687517
 28.5329	0.687518
 28.5429	0.687519
 28.5529	0.687519
 28.5629	0.68752
 28.5729	0.687521
 28.5829	0.687522
 28.5929	0.687523
 28.6029	0.687524
 28.6129	0.687525
 28.6229	0.687525
 28.6329	0.687526
 28.6429	0.687527
 28.6529	0.687528
 28.6629	0.687529
 28.6729	0.68753
 28.6829	0.687531
 28.6929	0.687532
 28.7029	0.687532
 28.7129	0.687533
 28.7229	0.687534
 28.7329	0.687535
 28.7429	0.687536
 28.7529	0.687537
 28.7629	0.687538
 28.7729	0.687539
 28.7829	0.687539
 28.7929	0.68754
 28.8029	0.687541
 28.8129	0.687542
 28.8229	0.687543
 28.8329	0.687544
 28.8429	0.687545
 28.8529	0.687546
 28.8629	0.687546
 28.8729	0.687547
 28.8829	0.687548
 28.8929	0.687549
 28.9029	0.68755
 28.9129	0.687551
 28.9229	0.687552
 28.9329	0.687552
 28.9429	0.687553
 28.9529	0.687554
 28.9629	0.687555
 28.9729	0.687556
 28.9829	0.687557
 28.9929	0.687558
 29.0029	0.687559
 29.0129	0.687559
 29.0229	0.68756
 29.0329	0.687561
 29.0429	0.687562
 29.0529	0.687563
 29.0629	0.687564
 29.0729	0.687565
 29.0829	0.687566
 29.0929	0.687566
 29.1029	0.687567
 29.1129	0.687568
 29.1229	0.687569
 29.1329	0.68757
 29.1429	0.687571
 29.1529	0.687572
 29.1629	0.687573
 29.1729	0.687573
 29.1829	0.687574
 29.1929	0.687575
 29.2029	0.687576
 29.2129	0.687577
 29.2229	0.687578
 29.2329	0.687579
 29.2429	0.687579
 29.2529	0.68758
 29.2629	0.687581
 29.2729	0.687582
 29.2829	0.687583
 29.2929	0.687584
 29.3029	0.687585
 29.3129	0.687586
 29.3229	0.687586
 29.3329	0.687587
 29.3429	0.687588
 29.3529	0.687589
 29.3629	0.68759
 29.3729	0.687591
 29.3829	0.687592
 29.3929	0.687593
 29.4029	0.687593
 29.4129	0.687594
 29.4229	0.687595
 29.4329	0.687596
 29.4429	0.687597
 29.4529	0.687598
 29.4629	0.687599
 29.4729	0.6876
 29.4829	0.6876
 29.4929	0.687601
 29.503	0.687602
 29.513	0.687603
 29.523	0.687604
 29.533	0.687605
 29.543	0.687606
 29.553	0.687606
 29.563	0.687607
 29.573	0.687608
 29.583	0.687609
 29.593	0.68761
 29.603	0.687611
 29.613	0.687612
 29.623	0.687613
 29.633	0.687613
 29.643	0.687614
 29.653	0.687615
 29.663	0.687616
 29.673	0.687617
 29.683	0.687618
 29.693	0.687619
 29.703	0.68762
 29.713	0.68762
 29.723	0.687621
 29.733	0.687622
 29.743	0.687623
 29.753	0.687624
 29.763	0.687625
 29.773	0.687626
 29.783	0.687627
 29.793	0.687627
 29.803	0.687628
 29.813	0.687629
 29.823	0.68763
 29.833	0.687631
 29.843	0.687632
 29.853	0.687633
 29.863	0.687633
 29.873	0.687634
 29.883	0.687635
 29.893	0.687636
 29.903	0.687637
 29.913	0.687638
 29.923	0.687639
 29.933	0.68764
 29.943	0.68764
 29.953	0.687641
 29.963	0.687642
 29.973	0.687643
 29.983	0.687644
 29.993	0.687645
 30.003	0.687646
 30.013	0.687646
 30.023	0.687647
 30.033	0.687648
 30.043	0.687649
 30.053	0.687649
 30.063	0.68765
 30.073	0.687651
 30.083	0.687652
 30.093	0.687652
 30.103	0.687653
 30.113	0.687654
 30.123	0.687655
 30.133	0.687655
 30.143	0.687656
 30.153	0.687657
 30.163	0.687658
 30.173	0.687658
 30.183	0.687659
 30.193	0.68766
 30.203	0.68766
 30.213	0.687661
 30.223	0.687662
 30.233	0.687663
 30.243	0.687663
 30.253	0.687664
 30.263	0.687665
 30.273	0.687666
 30.283	0.687666
 30.293	0.687667
 30.303	0.687668
 30.313	0.687669
 30.323	0.687669
 30.333	0.68767
 30.343	0.687671
 30.353	0.687672
 30.363	0.687672
 30.373	0.687673
 30.383	0.687674
 30.393	0.687675
 30.403	0.687675
 30.413	0.687676
 30.423	0.687677
 30.433	0.687678
 30.443	0.687678
 30.453	0.687679
 30.463	0.68768
 30.473	0.687681
 30.483	0.687681
 30.493	0.687682
 30.5031	0.687683
 30.5131	0.687684
 30.5231	0.687684
 30.5331	0.687685
 30.5431	0.687686
 30.5531	0.687686
 30.5631	0.687687
 30.5731	0.687688
 30.5831	0.687689
 30.5931	0.687689
 30.6031	0.68769
 30.6131	0.687691
 30.6231	0.687692
 30.6331	0.687692
 30.6431	0.687693
 30.6531	0.687694
 30.6631	0.687695
 30.6731	0.687695
 30.6831	0.687696
 30.6931	0.687697
 30.7031	0.687698
 30.7131	0.687698
 30.7231	0.687699
 30.7331	0.6877
 30.7431	0.687701
 30.7531	0.687701
 30.7631	0.687702
 30.7731	0.687703
 30.7831	0.687704
 30.7931	0.687704
 30.8031	0.687705
 30.8131	0.687706
 30.8231	0.687707
 30.8331	0.687707
 30.8431	0.687708
 30.8531	0.687709
 30.8631	0.687709
 30.8731	0.68771
 30.8831	0.687711
 30.8931	0.687712
 30.9031	0.687712
 30.9131	0.687713
 30.9231	0.687714
 30.9331	0.687715
 30.9431	0.687715
 30.9531	0.687716
 30.9631	0.687717
 30.9731	0.687718
 30.9831	0.687718
 30.9931	0.687719
 31.0031	0.68772
 31.0131	0.687721
 31.0231	0.687721
 31.0331	0.687722
 31.0431	0.687723
 31.0531	0.687724
 31.0631	0.687724
 31.0731	0.687725
 31.0831	0.687726
 31.0931	0.687727
 31.1031	0.687727
 31.1131	0.687728
 31.1231	0.687729
 31.1331	0.68773
 31.1431	0.68773
 31.1531	0.687731
 31.1631	0.687732
 31.1731	0.687732
 31.1831	0.687733
 31.1931	0.687734
 31.2031	0.687735
 31.2131	0.687735
 31.2231	0.687736
 31.2331	0.687737
 31.2431	0.687738
 31.2531	0.687738
 31.2631	0.687739
 31.2731	0.68774
 31.2831	0.687741
 31.2931	0.687741
 31.3031	0.687742
 31.3131	0.687743
 31.3231	0.687744
 31.3331	0.687744
 31.3431	0.687745
 31.3531	0.687746
 31.3631	0.687747
 31.3731	0.687747
 31.3831	0.687748
 31.3931	0.687749
 31.4031	0.68775
 31.4131	0.68775
 31.4231	0.687751
 31.4331	0.687752
 31.4431	0.687753
 31.4531	0.687753
 31.4631	0.687754
 31.4731	0.687755
 31.4831	0.687755
 31.4931	0.687756
 31.5032	0.687757
 31.5132	0.687758
 31.5232	0.687758
 31.5332	0.687759
 31.5432	0.68776
 31.5532	0.687761
 31.5632	0.687761
 31.5732	0.687762
 31.5832	0.687763
 31.5932	0.687764
 31.6032	0.687764
 31.6132	0.687765
 31.6232	0.687766
 31.6332	0.687767
 31.6432	0.687767
 31.6532	0.687768
 31.6632	0.687769
 31.6732	0.68777
 31.6832	0.68777
 31.6932	0.687771
 31.7032	0.687772
 31.7132	0.687773
 31.7232	0.687773
 31.7332	0.687774
 31.7432	0.687775
 31.7532	0.687776
 31.7632	0.687776
 31.7732	0.687777
 31.7832	0.687778
 31.7932	0.687778
 31.8032	0.687779
 31.8132	0.68778
 31.8232	0.687781
 31.8332	0.687781
 31.8432	0.687782
 31.8532	0.687783
 31.8632	0.687784
 31.8732	0.687784
 31.8832	0.687785
 31.8932	0.687786
 31.9032	0.687787
 31.9132	0.687787
 31.9232	0.687788
 31.9332	0.687789
 31.9432	0.68779
 31.9532	0.68779
 31.9632	0.687791
 31.9732	0.687792
 31.9832	0.687793
 31.9932	0.687793
 32.0032	0.687794
 32.0132	0.687795
 32.0232	0.687796
 32.0332	0.687796
 32.0432	0.687797
 32.0532	0.687798
 32.0632	0.687799
 32.0732	0.687799
 32.0832	0.6878
 32.0932	0.687801
 32.1032	0.687802
 32.1132	0.687802
 32.1232	0.687803
 32.1332	0.687804
 32.1432	0.687804
 32.1532	0.687805
 32.1632	0.687806
 32.1732	0.687807
 32.1832	0.687807
 32.1932	0.687808
 32.2032	0.687809
 32.2132	0.68781
 32.2232	0.68781
 32.2332	0.687811
 32.2432	0.687812
 32.2532	0.687813
 32.2632	0.687813
 32.2732	0.687814
 32.2832	0.687815
 32.2932	0.687816
 32.3032	0.687816
 32.3132	0.687817
 32.3232	0.687818
 32.3332	0.687819
 32.3432	0.687819
 32.3532	0.68782
 32.3632	0.687821
 32.3732	0.687822
 32.3832	0.687822
 32.3932	0.687823
 32.4032	0.687824
 32.4132	0.687825
 32.4232	0.687825
 32.4332	0.687826
 32.4432	0.687827
 32.4532	0.687827
 32.4632	0.687828
 32.4732	0.687829
 32.4832	0.68783
 32.4932	0.68783
 32.5033	0.687831
 32.5133	0.687832
 32.5233	0.687833
 32.5333	0.687833
 32.5433	0.687834
 32.5533	0.687835
 32.5633	0.687836
 32.5733	0.687836
 32.5833	0.687837
 32.5933	0.687838
 32.6033	0.687839
 32.6133	0.687839
 32.6233	0.68784
 32.6333	0.687841
 32.6433	0.687842
 32.6533	0.687842
 32.6633	0.687843
 32.6733	0.687844
 32.6833	0.687845
 32.6933	0.687845
 32.7033	0.687846
 32.7133	0.687847
 32.7233	0.687848
 32.7333	0.687848
 32.7433	0.687849
 32.7533	0.68785
 32.7633	0.68785
 32.7733	0.687851
 32.7833	0.687852
 32.7933	0.687853
 32.8033	0.687853
 32.8133	0.687854
 32.8233	0.687855
 32.8333	0.687856
 32.8433	0.687856
 32.8533	0.687857
 32.8633	0.687858
 32.8733	0.687859
 32.8833	0.687859
 32.8933	0.68786
 32.9033	0.687861
 32.9133	0.687862
 32.9233	0.687862
 32.9333	0.687863
 32.9433	0.687864
 32.9533	0.687865
 32.9633	0.687865
 32.9733	0.687866
 32.9833	0.687867
 32.9933	0.687868
 33.0033	0.687868
 33.0133	0.687869
 33.0233	0.68787
 33.0333	0.687871
 33.0433	0.687871
 33.0533	0.687872
 33.0633	0.687873
 33.0733	0.687873
 33.0833	0.687874
 33.0933	0.687875
 33.1033	0.687876
 33.1133	0.687876
 33.1233	0.687877
 33.1333	0.687878
 33.1433	0.687879
 33.1533	0.687879
 33.1633	0.68788
 33.1733	0.687881
 33.1833	0.687882
 33.1933	0.687882
 33.2033	0.687883
 33.2133	0.687884
 33.2233	0.687885
 33.2333	0.687885
 33.2433	0.687886
 33.2533	0.687887
 33.2633	0.687888
 33.2733	0.687888
 33.2833	0.687889
 33.2933	0.68789
 33.3033	0.687891
 33.3133	0.687891
 33.3233	0.687892
 33.3333	0.687893
 33.3433	0.687894
 33.3533	0.687894
 33.3633	0.687895
 33.3733	0.687896
 33.3833	0.687896
 33.3933	0.687897
 33.4033	0.687898
 33.4133	0.687899
 33.4233	0.687899
 33.4333	0.6879
 33.4433	0.687901
 33.4533	0.687902
 33.4633	0.687902
 33.4733	0.687903
 33.4833	0.687904
 33.4933	0.687905
 33.5034	0.687905
 33.5134	0.687906
 33.5234	0.687907
 33.5334	0.687908
 33.5434	0.687908
 33.5534	0.687909
 33.5634	0.68791
 33.5734	0.687911
 33.5834	0.687911
 33.5934	0.687912
 33.6034	0.687913
 33.6134	0.687914
 33.6234	0.687914
 33.6334	0.687915
 33.6434	0.687916
 33.6534	0.687917
 33.6634	0.687917
 33.6734	0.687918
 33.6834	0.687919
 33.6934	0.68792
 33.7034	0.68792
 33.7134	0.687921
 33.7234	0.687922
 33.7334	0.687922
 33.7434	0.687923
 33.7534	0.687924
 33.7634	0.687925
 33.7734	0.687925
 33.7834	0.687926
 33.7934	0.687927
 33.8034	0.687928
 33.8134	0.687928
 33.8234	0.687929
 33.8334	0.68793
 33.8434	0.687931
 33.8534	0.687931
 33.8634	0.687932
 33.8734	0.687933
 33.8834	0.687934
 33.8934	0.687934
 33.9034	0.687935
 33.9134	0.687936
 33.9234	0.687937
 33.9334	0.687937
 33.9434	0.687938
 33.9534	0.687939
 33.9634	0.68794
 33.9734	0.68794
 33.9834	0.687941
 33.9934	0.687942
 34.0034	0.687943
 34.0134	0.687943
 34.0234	0.687944
 34.0334	0.687945
 34.0434	0.687945
 34.0534	0.687946
 34.0634	0.687947
 34.0734	0.687948
 34.0834	0.687948
 34.0934	0.687949
 34.1034	0.68795
 34.1134	0.687951
 34.1234	0.687951
 34.1334	0.687952
 34.1434	0.687953
 34.1534	0.687954
 34.1634	0.687954
 34.1734	0.687955
 34.1834	0.687956
 34.1934	0.687957
 34.2034	0.687957
 34.2134	0.687958
 34.2234	0.687959
 34.2334	0.68796
 34.2434	0.68796
 34.2534	0.687961
 34.2634	0.687962
 34.2734	0.687963
 34.2834	0.687963
 34.2934	0.687964
 34.3034	0.687965
 34.3134	0.687966
 34.3234	0.687966
 34.3334	0.687967
 34.3434	0.687968
 34.3534	0.687968
 34.3634	0.687969
 34.3734	0.68797
 34.3834	0.687971
 34.3934	0.687971
 34.4034	0.687972
 34.4134	0.687973
 34.4234	0.687974
 34.4334	0.687974
 34.4434	0.687975
 34.4534	0.687976
 34.4634	0.687977
 34.4734	0.687977
 34.4834	0.687978
 34.4934	0.687979
 34.5035	0.68798
 34.5135	0.68798
 34.5235	0.687981
 34.5335	0.687982
 34.5435	0.687983
 34.5535	0.687983
 34.5635	0.687984
 34.5735	0.687985
 34.5835	0.687986
 34.5935	0.687986
 34.6035	0.687987
 34.6135	0.687988
 34.6235	0.687989
 34.6335	0.687989
 34.6435	0.68799
 34.6535	0.687991
 34.6635	0.687991
 34.6735	0.687992
 34.6835	0.687993
 34.6935	0.687994
 34.7035	0.687994
 34.7135	0.687995
 34.7235	0.687996
 34.7335	0.687997
 34.7435	0.687997
 34.7535	0.687998
 34.7635	0.687999
 34.7735	0.688
 34.7835	0.688
 34.7935	0.688001
 34.8035	0.688002
 34.8135	0.688003
 34.8235	0.688003
 34.8335	0.688004
 34.8435	0.688005
 34.8535	0.688006
 34.8635	0.688006
 34.8735	0.688007
 34.8835	0.688008
 34.8935	0.688009
 34.9035	0.688009
 34.9135	0.68801
 34.9235	0.688011
 34.9335	0.688012
 34.9435	0.688012
 34.9535	0.688013
 34.9635	0.688014
 34.9735	0.688014
 34.9835	0.688015
 34.9935	0.688016
 35.0035	0.688017
 35.0135	0.688017
 35.0235	0.688018
 35.0335	0.688019
 35.0435	0.68802
 35.0535	0.68802
 35.0635	0.688021
 35.0735	0.688022
 35.0835	0.688022
 35.0935	0.688023
 35.1035	0.688024
 35.1135	0.688025
 35.1235	0.688025
 35.1335	0.688026
 35.1435	0.688027
 35.1535	0.688027
 35.1635	0.688028
 35.1735	0.688029
 35.1835	0.688029
 35.1935	0.68803
 35.2035	0.688031
 35.2135	0.688032
 35.2235	0.688032
 35.2335	0.688033
 35.2435	0.688034
 35.2535	0.688034
 35.2635	0.688035
 35.2735	0.688036
 35.2835	0.688037
 35.2935	0.688037
 35.3035	0.688038
 35.3135	0.688039
 35.3235	0.688039
 35.3335	0.68804
 35.3435	0.688041
 35.3535	0.688042
 35.3635	0.688042
 35.3735	0.688043
 35.3835	0.688044
 35.3935	0.688044
 35.4035	0.688045
 35.4135	0.688046
 35.4235	0.688047
 35.4335	0.688047
 35.4435	0.688048
 35.4535	0.688049
 35.4635	0.688049
 35.4735	0.68805
 35.4835	0.688051
 35.4935	0.688051
 35.5036	0.688052
 35.5136	0.688053
 35.5236	0.688054
 35.5336	0.688054
 35.5436	0.688055
 35.5536	0.688056
 35.5636	0.688056
 35.5736	0.688057
 35.5836	0.688058
 35.5936	0.688059
 35.6036	0.688059
 35.6136	0.68806
 35.6236	0.688061
 35.6336	0.688061
 35.6436	0.688062
 35.6536	0.688063
 35.6636	0.688064
 35.6736	0.688064
 35.6836	0.688065
 35.6936	0.688066
 35.7036	0.688066
 35.7136	0.688067
 35.7236	0.688068
 35.7336	0.688069
 35.7436	0.688069
 35.7536	0.68807
 35.7636	0.688071
 35.7736	0.688071
 35.7836	0.688072
 35.7936	0.688073
 35.8036	0.688073
 35.8136	0.688074
 35.8236	0.688075
 35.8336	0.688076
 35.8436	0.688076
 35.8536	0.688077
 35.8636	0.688078
 35.8736	0.688078
 35.8836	0.688079
 35.8936	0.68808
 35.9036	0.688081
 35.9136	0.688081
 35.9236	0.688082
 35.9336	0.688083
 35.9436	0.688083
 35.9536	0.688084
 35.9636	0.688085
 35.9736	0.688086
 35.9836	0.688086
 35.9936	0.688087
 36.0036	0.688088
 36.0136	0.688088
 36.0236	0.688089
 36.0336	0.68809
 36.0436	0.688091
 36.0536	0.688091
 36.0636	0.688092
 36.0736	0.688093
 36.0836	0.688093
 36.0936	0.688094
 36.1036	0.688095
 36.1136	0.688096
 36.1236	0.688096
 36.1336	0.688097
 36.1436	0.688098
 36.1536	0.688098
 36.1636	0.688099
 36.1736	0.6881
 36.1836	0.6881
 36.1936	0.688101
 36.2036	0.688102
 36.2136	0.688103
 36.2236	0.688103
 36.2336	0.688104
 36.2436	0.688105
 36.2536	0.688105
 36.2636	0.688106
 36.2736	0.688107
 36.2836	0.688108
 36.2936	0.688108
 36.3036	0.688109
 36.3136	0.68811
 36.3236	0.68811
 36.3336	0.688111
 36.3436	0.688112
 36.3536	0.688113
 36.3636	0.688113
 36.3736	0.688114
 36.3836	0.688115
 36.3936	0.688115
 36.4036	0.688116
 36.4136	0.688117
 36.4236	0.688118
 36.4336	0.688118
 36.4436	0.688119
 36.4536	0.68812
 36.4636	0.68812
 36.4736	0.688121
 36.4836	0.688122
 36.4936	0.688122
 36.5037	0.688123
 36.5137	0.688124
 36.5237	0.688125
 36.5337	0.688125
 36.5437	0.688126
 36.5537	0.688127
 36.5637	0.688127
 36.5737	0.688128
 36.5837	0.688129
 36.5937	0.68813
 36.6037	0.68813
 36.6137	0.688131
 36.6237	0.688132
 36.6337	0.688132
 36.6437	0.688133
 36.6537	0.688134
 36.6637	0.688135
 36.6737	0.688135
 36.6837	0.688136
 36.6937	0.688137
 36.7037	0.688137
 36.7137	0.688138
 36.7237	0.688139
 36.7337	0.68814
 36.7437	0.68814
 36.7537	0.688141
 36.7637	0.688142
 36.7737	0.688142
 36.7837	0.688143
 36.7937	0.688144
 36.8037	0.688144
 36.8137	0.688145
 36.8237	0.688146
 36.8337	0.688147
 36.8437	0.688147
 36.8537	0.688148
 36.8637	0.688149
 36.8737	0.688149
 36.8837	0.68815
 36.8937	0.688151
 36.9037	0.688152
 36.9137	0.688152
 36.9237	0.688153
 36.9337	0.688154
 36.9437	0.688154
 36.9537	0.688155
 36.9637	0.688156
 36.9737	0.688157
 36.9837	0.688157
 36.9937	0.688158
 37.0037	0.688159
 37.0137	0.688159
 37.0237	0.68816
 37.0337	0.688161
 37.0437	0.688162
 37.0537	0.688162
 37.0637	0.688163
 37.0737	0.688164
 37.0837	0.688164
 37.0937	0.688165
 37.1037	0.688166
 37.1137	0.688166
 37.1237	0.688167
 37.1337	0.688168
 37.1437	0.688169
 37.1537	0.688169
 37.1637	0.68817
 37.1737	0.688171
 37.1837	0.688171
 37.1937	0.688172
 37.2037	0.688173
 37.2137	0.688174
 37.2237	0.688174
 37.2337	0.688175
 37.2437	0.688176
 37.2537	0.688176
 37.2637	0.688177
 37.2737	0.688178
 37.2837	0.688179
 37.2937	0.688179
 37.3037	0.68818
 37.3137	0.688181
 37.3237	0.688181
 37.3337	0.688182
 37.3437	0.688183
 37.3537	0.688184
 37.3637	0.688184
 37.3737	0.688185
 37.3837	0.688186
 37.3937	0.688186
 37.4037	0.688187
 37.4137	0.688188
 37.4237	0.688188
 37.4337	0.688189
 37.4437	0.68819
 37.4537	0.688191
 37.4637	0.688191
 37.4737	0.688192
 37.4837	0.688193
 37.4937	0.688193
 37.5038	0.688194
 37.5138	0.688195
 37.5238	0.688196
 37.5338	0.688196
 37.5438	0.688197
 37.5538	0.688198
 37.5638	0.688198
 37.5738	0.688199
 37.5838	0.6882
 37.5938	0.688201
 37.6038	0.688201
 37.6138	0.688202
 37.6238	0.688203
 37.6338	0.688203
 37.6438	0.688204
 37.6538	0.688205
 37.6638	0.688206
 37.6738	0.688206
 37.6838	0.688207
 37.6938	0.688208
 37.7038	0.688208
 37.7138	0.688209
 37.7238	0.68821
 37.7338	0.68821
 37.7438	0.688211
 37.7538	0.688212
 37.7638	0.688213
 37.7738	0.688213
 37.7838	0.688214
 37.7938	0.688215
 37.8038	0.688215
 37.8138	0.688216
 37.8238	0.688217
 37.8338	0.688218
 37.8438	0.688218
 37.8538	0.688219
 37.8638	0.68822
 37.8738	0.68822
 37.8838	0.688221
 37.8938	0.688222
 37.9038	0.688223
 37.9138	0.688223
 37.9238	0.688224
 37.9338	0.688225
 37.9438	0.688225
 37.9538	0.688226
 37.9638	0.688227
 37.9738	0.688228
 37.9838	0.688228
 37.9938	0.688229
 38.0038	0.68823
 38.0138	0.68823
 38.0238	0.688231
 38.0338	0.688232
 38.0438	0.688232
 38.0538	0.688233
 38.0638	0.688234
 38.0738	0.688235
 38.0838	0.688235
 38.0938	0.688236
 38.1038	0.688237
 38.1138	0.688237
 38.1238	0.688238
 38.1338	0.688239
 38.1438	0.68824
 38.1538	0.68824
 38.1638	0.688241
 38.1738	0.688242
 38.1838	0.688242
 38.1938	0.688243
 38.2038	0.688244
 38.2138	0.688245
 38.2238	0.688245
 38.2338	0.688246
 38.2438	0.688247
 38.2538	0.688247
 38.2638	0.688248
 38.2738	0.688249
 38.2838	0.68825
 38.2938	0.68825
 38.3038	0.688251
 38.3138	0.688252
 38.3238	0.688252
 38.3338	0.688253
 38.3438	0.688254
 38.3538	0.688254
 38.3638	0.688255
 38.3738	0.688256
 38.3838	0.688257
 38.3938	0.688257
 38.4038	0.688258
 38.4138	0.688259
 38.4238	0.688259
 38.4338	0.68826
 38.4438	0.688261
 38.4538	0.688262
 38.4638	0.688262
 38.4738	0.688263
 38.4838	0.688264
 38.4938	0.688264
 38.5039	0.688265
 38.5139	0.688266
 38.5239	0.688267
 38.5339	0.688267
 38.5439	0.688268
 38.5539	0.688269
 38.5639	0.688269
 38.5739	0.68827
 38.5839	0.688271
 38.5939	0.688272
 38.6039	0.688272
 38.6139	0.688273
 38.6239	0.688274
 38.6339	0.688274
 38.6439	0.688275
 38.6539	0.688276
 38.6639	0.688276
 38.6739	0.688277
 38.6839	0.688278
 38.6939	0.688279
 38.7039	0.688279
 38.7139	0.68828
 38.7239	0.688281
 38.7339	0.688281
 38.7439	0.688282
 38.7539	0.688283
 38.7639	0.688284
 38.7739	0.688284
 38.7839	0.688285
 38.7939	0.688286
 38.8039	0.688286
 38.8139	0.688287
 38.8239	0.688288
 38.8339	0.688289
 38.8439	0.688289
 38.8539	0.68829
 38.8639	0.688291
 38.8739	0.688291
 38.8839	0.688292
 38.8939	0.688293
 38.9039	0.688294
 38.9139	0.688294
 38.9239	0.688295
 38.9339	0.688296
 38.9439	0.688296
 38.9539	0.688297
 38.9639	0.688298
 38.9739	0.688299
 38.9839	0.688299
 38.9939	0.6883
 39.0039	0.688301
 39.0139	0.688301
 39.0239	0.688302
 39.0339	0.688303
 39.0439	0.688303
 39.0539	0.688304
 39.0639	0.688305
 39.0739	0.688306
 39.0839	0.688306
 39.0939	0.688307
 39.1039	0.688308
 39.1139	0.688308
 39.1239	0.688309
 39.1339	0.68831
 39.1439	0.688311
 39.1539	0.688311
 39.1639	0.688312
 39.1739	0.688313
 39.1839	0.688313
 39.1939	0.688314
 39.2039	0.688315
 39.2139	0.688316
 39.2239	0.688316
 39.2339	0.688317
 39.2439	0.688318
 39.2539	0.688318
 39.2639	0.688319
 39.2739	0.68832
 39.2839	0.688321
 39.2939	0.688321
 39.3039	0.688322
 39.3139	0.688323
 39.3239	0.688323
 39.3339	0.688324
 39.3439	0.688325
 39.3539	0.688325
 39.3639	0.688326
 39.3739	0.688327
 39.3839	0.688328
 39.3939	0.688328
 39.4039	0.688329
 39.4139	0.68833
 39.4239	0.68833
 39.4339	0.688331
 39.4439	0.688332
 39.4539	0.688333
 39.4639	0.688333
 39.4739	0.688334
 39.4839	0.688335
 39.4939	0.688335
 39.504	0.688336
 39.514	0.688337
 39.524	0.688338
 39.534	0.688338
 39.544	0.688339
 39.554	0.68834
 39.564	0.68834
 39.574	0.688341
 39.584	0.688342
 39.594	0.688343
 39.604	0.688343
 39.614	0.688344
 39.624	0.688345
 39.634	0.688345
 39.644	0.688346
 39.654	0.688347
 39.664	0.688347
 39.674	0.688348
 39.684	0.688349
 39.694	0.68835
 39.704	0.68835
 39.714	0.688351
 39.724	0.688352
 39.734	0.688352
 39.744	0.688353
 39.754	0.688354
 39.764	0.688355
 39.774	0.688355
 39.784	0.688356
 39.794	0.688357
 39.804	0.688357
 39.814	0.688358
 39.824	0.688359
 39.834	0.68836
 39.844	0.68836
 39.854	0.688361
 39.864	0.688362
 39.874	0.688362
 39.884	0.688363
 39.894	0.688364
 39.904	0.688365
 39.914	0.688365
 39.924	0.688366
 39.934	0.688367
 39.944	0.688367
 39.954	0.688368
 39.964	0.688369
 39.974	0.688369
 39.984	0.68837
 39.994	0.688371
 40.004	0.688372
 40.014	0.688372
 40.024	0.688373
 40.034	0.688374
 40.044	0.688374
 40.054	0.688375
 40.064	0.688376
 40.074	0.688377
 40.084	0.688377
 40.094	0.688378
 40.104	0.688379
 40.114	0.688379
 40.124	0.68838
 40.134	0.688381
 40.144	0.688382
 40.154	0.688382
 40.164	0.688383
 40.174	0.688384
 40.184	0.688384
 40.194	0.688385
 40.204	0.688386
 40.214	0.688387
 40.224	0.688387
 40.234	0.688388
 40.244	0.688389
 40.254	0.688389
 40.264	0.68839
 40.274	0.688391
 40.284	0.688391
 40.294	0.688392
 40.304	0.688393
 40.314	0.688394
 40.324	0.688394
 40.334	0.688395
 40.344	0.688396
 40.354	0.688396
 40.364	0.688397
 40.374	0.688398
 40.384	0.688399
 40.394	0.688399
 40.404	0.6884
 40.414	0.688401
 40.424	0.688401
 40.434	0.688402
 40.444	0.688403
 40.454	0.688404
 40.464	0.688404
 40.474	0.688405
 40.484	0.688406
 40.494	0.688406
 40.5041	0.688407
 40.5141	0.688408
 40.5241	0.688409
 40.5341	0.688409
 40.5441	0.68841
 40.5541	0.688411
 40.5641	0.688411
 40.5741	0.688412
 40.5841	0.688413
 40.5941	0.688413
 40.6041	0.688414
 40.6141	0.688415
 40.6241	0.688416
 40.6341	0.688416
 40.6441	0.688417
 40.6541	0.688418
 40.6641	0.688418
 40.6741	0.688419
 40.6841	0.68842
 40.6941	0.688421
 40.7041	0.688421
 40.7141	0.688422
 40.7241	0.688423
 40.7341	0.688423
 40.7441	0.688424
 40.7541	0.688425
 40.7641	0.688426
 40.7741	0.688426
 40.7841	0.688427
 40.7941	0.688428
 40.8041	0.688428
 40.8141	0.688429
 40.8241	0.68843
 40.8341	0.688431
 40.8441	0.688431
 40.8541	0.688432
 40.8641	0.688433
 40.8741	0.688433
 40.8841	0.688434
 40.8941	0.688435
 40.9041	0.688435
 40.9141	0.688436
 40.9241	0.688437
 40.9341	0.688438
 40.9441	0.688438
 40.9541	0.688439
 40.9641	0.68844
 40.9741	0.68844
 40.9841	0.688441
 40.9941	0.688442
 41.0041	0.688443
 41.0141	0.688443
 41.0241	0.688444
 41.0341	0.688445
 41.0441	0.688445
 41.0541	0.688446
 41.0641	0.688447
 41.0741	0.688448
 41.0841	0.688448
 41.0941	0.688449
 41.1041	0.68845
 41.1141	0.68845
 41.1241	0.688451
 41.1341	0.688452
 41.1441	0.688453
 41.1541	0.688453
 41.1641	0.688454
 41.1741	0.688455
 41.1841	0.688455
 41.1941	0.688456
 41.2041	0.688457
 41.2141	0.688457
 41.2241	0.688458
 41.2341	0.688459
 41.2441	0.68846
 41.2541	0.68846
 41.2641	0.688461
 41.2741	0.688462
 41.2841	0.688462
 41.2941	0.688463
 41.3041	0.688464
 41.3141	0.688465
 41.3241	0.688465
 41.3341	0.688466
 41.3441	0.688467
 41.3541	0.688467
 41.3641	0.688468
 41.3741	0.688469
 41.3841	0.68847
 41.3941	0.68847
 41.4041	0.688471
 41.4141	0.688472
 41.4241	0.688472
 41.4341	0.688473
 41.4441	0.688474
 41.4541	0.688475
 41.4641	0.688475
 41.4741	0.688476
 41.4841	0.688477
 41.4941	0.688477
 41.5042	0.688478
 41.5142	0.688479
 41.5242	0.68848
 41.5342	0.68848
 41.5442	0.688481
 41.5542	0.688482
 41.5642	0.688482
 41.5742	0.688483
 41.5842	0.688484
 41.5942	0.688484
 41.6042	0.688485
 41.6142	0.688486
 41.6242	0.688487
 41.6342	0.688487
 41.6442	0.688488
 41.6542	0.688489
 41.6642	0.688489
 41.6742	0.68849
 41.6842	0.688491
 41.6942	0.688492
 41.7042	0.688492
 41.7142	0.688493
 41.7242	0.688494
 41.7342	0.688494
 41.7442	0.688495
 41.7542	0.688496
 41.7642	0.688497
 41.7742	0.688497
 41.7842	0.688498
 41.7942	0.688499
 41.8042	0.688499
 41.8142	0.6885
 41.8242	0.688501
 41.8342	0.688502
 41.8442	0.688502
 41.8542	0.688503
 41.8642	0.688504
 41.8742	0.688504
 41.8842	0.688505
 41.8942	0.688506
 41.9042	0.688506
 41.9142	0.688507
 41.9242	0.688508
 41.9342	0.688509
 41.9442	0.688509
 41.9542	0.68851
 41.9642	0.688511
 41.9742	0.688511
 41.9842	0.688512
 41.9942	0.688513
 42.0042	0.688514
 42.0142	0.688514
 42.0242	0.688515
 42.0342	0.688516
 42.0442	0.688516
 42.0542	0.688517
 42.0642	0.688518
 42.0742	0.688519
 42.0842	0.688519
 42.0942	0.68852
 42.1042	0.688521
 42.1142	0.688521
 42.1242	0.688522
 42.1342	0.688523
 42.1442	0.688524
 42.1542	0.688524
 42.1642	0.688525
 42.1742	0.688526
 42.1842	0.688526
 42.1942	0.688527
 42.2042	0.688528
 42.2142	0.688528
 42.2242	0.688529
 42.2342	0.68853
 42.2442	0.688531
 42.2542	0.688531
 42.2642	0.688532
 42.2742	0.688533
 42.2842	0.688533
 42.2942	0.688534
 42.3042	0.688535
 42.3142	0.688536
 42.3242	0.688536
 42.3342	0.688537
 42.3442	0.688538
 42.3542	0.688538
 42.3642	0.688539
 42.3742	0.68854
 42.3842	0.688541
 42.3942	0.688541
 42.4042	0.688542
 42.4142	0.688543
 42.4242	0.688543
 42.4342	0.688544
 42.4442	0.688545
 42.4542	0.688546
 42.4642	0.688546
 42.4742	0.688547
 42.4842	0.688548
 42.4942	0.688548
 42.5043	0.688549
 42.5143	0.68855
 42.5243	0.68855
 42.5343	0.688551
 42.5443	0.688552
 42.5543	0.688553
 42.5643	0.688553
 42.5743	0.688554
 42.5843	0.688555
 42.5943	0.688555
 42.6043	0.688556
 42.6143	0.688557
 42.6243	0.688558
 42.6343	0.688558
 42.6443	0.688559
 42.6543	0.68856
 42.6643	0.68856
 42.6743	0.688561
 42.6843	0.688562
 42.6943	0.688563
 42.7043	0.688563
 42.7143	0.688564
 42.7243	0.688565
 42.7343	0.688565
 42.7443	0.688566
 42.7543	0.688567
 42.7643	0.688568
 42.7743	0.688568
 42.7843	0.688569
 42.7943	0.68857
 42.8043	0.68857
 42.8143	0.688571
 42.8243	0.688572
 42.8343	0.688572
 42.8443	0.688573
 42.8543	0.688574
 42.8643	0.688575
 42.8743	0.688575
 42.8843	0.688576
 42.8943	0.688577
 42.9043	0.688577
 42.9143	0.688578
 42.9243	0.688579
 42.9343	0.68858
 42.9443	0.68858
 42.9543	0.688581
 42.9643	0.688582
 42.9743	0.688582
 42.9843	0.688583
 42.9943	0.688584
 43.0043	0.688585
 43.0143	0.688585
 43.0243	0.688586
 43.0343	0.688587
 43.0443	0.688587
 43.0543	0.688588
 43.0643	0.688589
 43.0743	0.68859
 43.0843	0.68859
 43.0943	0.688591
 43.1043	0.688592
 43.1143	0.688592
 43.1243	0.688593
 43.1343	0.688594
 43.1443	0.688594
 43.1543	0.688595
 43.1643	0.688596
 43.1743	0.688597
 43.1843	0.688597
 43.1943	0.688598
 43.2043	0.688599
 43.2143	0.688599
 43.2243	0.6886
 43.2343	0.688601
 43.2443	0.688602
 43.2543	0.688602
 43.2643	0.688603
 43.2743	0.688604
 43.2843	0.688604
 43.2943	0.688605
 43.3043	0.688606
 43.3143	0.688607
 43.3243	0.688607
 43.3343	0.688608
 43.3443	0.688609
 43.3543	0.688609
 43.3643	0.68861
 43.3743	0.688611
 43.3843	0.688612
 43.3943	0.688612
 43.4043	0.688613
 43.4143	0.688614
 43.4243	0.688614
 43.4343	0.688615
 43.4443	0.688616
 43.4543	0.688616
 43.4643	0.688617
 43.4743	0.688618
 43.4843	0.688619
 43.4943	0.688619
 43.5044	0.68862
 43.5144	0.688621
 43.5244	0.688621
 43.5344	0.688622
 43.5444	0.688623
 43.5544	0.688624
 43.5644	0.688624
 43.5744	0.688625
 43.5844	0.688626
 43.5944	0.688626
 43.6044	0.688627
 43.6144	0.688628
 43.6244	0.688629
 43.6344	0.688629
 43.6444	0.68863
 43.6544	0.688631
 43.6644	0.688631
 43.6744	0.688632
 43.6844	0.688633
 43.6944	0.688634
 43.7044	0.688634
 43.7144	0.688635
 43.7244	0.688636
 43.7344	0.688636
 43.7444	0.688637
 43.7544	0.688638
 43.7644	0.688638
 43.7744	0.688639
 43.7844	0.68864
 43.7944	0.688641
 43.8044	0.688641
 43.8144	0.688642
 43.8244	0.688643
 43.8344	0.688643
 43.8444	0.688644
 43.8544	0.688645
 43.8644	0.688646
 43.8744	0.688646
 43.8844	0.688647
 43.8944	0.688648
 43.9044	0.688648
 43.9144	0.688649
 43.9244	0.68865
 43.9344	0.688651
 43.9444	0.688651
 43.9544	0.688652
 43.9644	0.688653
 43.9744	0.688653
 43.9844	0.688654
 43.9944	0.688655
 44.0044	0.688656
 44.0144	0.688656
 44.0244	0.688657
 44.0344	0.688658
 44.0444	0.688658
 44.0544	0.688659
 44.0644	0.68866
 44.0744	0.688661
 44.0844	0.688661
 44.0944	0.688662
 44.1044	0.688663
 44.1144	0.688663
 44.1244	0.688664
 44.1344	0.688665
 44.1444	0.688665
 44.1544	0.688666
 44.1644	0.688667
 44.1744	0.688668
 44.1844	0.688668
 44.1944	0.688669
 44.2044	0.68867
 44.2144	0.68867
 44.2244	0.688671
 44.2344	0.688672
 44.2444	0.688673
 44.2544	0.688673
 44.2644	0.688674
 44.2744	0.688675
 44.2844	0.688675
 44.2944	0.688676
 44.3044	0.688677
 44.3144	0.688678
 44.3244	0.688678
 44.3344	0.688679
 44.3444	0.68868
 44.3544	0.68868
 44.3644	0.688681
 44.3744	0.688682
 44.3844	0.688683
 44.3944	0.688683
 44.4044	0.688684
 44.4144	0.688685
 44.4244	0.688685
 44.4344	0.688686
 44.4444	0.688687
 44.4544	0.688687
 44.4644	0.688688
 44.4744	0.688689
 44.4844	0.68869
 44.4944	0.68869
 44.5045	0.688691
 44.5145	0.688692
 44.5245	0.688692
 44.5345	0.688693
 44.5445	0.688694
 44.5545	0.688695
 44.5645	0.688695
 44.5745	0.688696
 44.5845	0.688697
 44.5945	0.688697
 44.6045	0.688698
 44.6145	0.688699
 44.6245	0.6887
 44.6345	0.6887
 44.6445	0.688701
 44.6545	0.688702
 44.6645	0.688702
 44.6745	0.688703
 44.6845	0.688704
 44.6945	0.688705
 44.7045	0.688705
 44.7145	0.688706
 44.7245	0.688707
 44.7345	0.688707
 44.7445	0.688708
 44.7545	0.688709
 44.7645	0.688709
 44.7745	0.68871
 44.7845	0.688711
 44.7945	0.688712
 44.8045	0.688712
 44.8145	0.688713
 44.8245	0.688714
 44.8345	0.688714
 44.8445	0.688715
 44.8545	0.688716
 44.8645	0.688717
 44.8745	0.688717
 44.8845	0.688718
 44.8945	0.688719
 44.9045	0.688719
 44.9145	0.68872
 44.9245	0.688721
 44.9345	0.688722
 44.9445	0.688722
 44.9545	0.688723
 44.9645	0.688724
 44.9745	0.688724
 44.9845	0.688725
 44.9945	0.688726
 45.0045	0.688727
 45.0145	0.688727
 45.0245	0.688728
 45.0345	0.688729
 45.0445	0.688729
 45.0545	0.68873
 45.0645	0.688731
 45.0745	0.688731
 45.0845	0.688732
 45.0945	0.688733
 45.1045	0.688734
 45.1145	0.688734
 45.1245	0.688735
 45.1345	0.688736
 45.1445	0.688736
 45.1545	0.688737
 45.1645	0.688738
 45.1745	0.688739
 45.1845	0.688739
 45.1945	0.68874
 45.2045	0.688741
 45.2145	0.688741
 45.2245	0.688742
 45.2345	0.688743
 45.2445	0.688744
 45.2545	0.688744
 45.2645	0.688745
 45.2745	0.688746
 45.2845	0.688746
 45.2945	0.688747
 45.3045	0.688748
 45.3145	0.688749
 45.3245	0.688749
 45.3345	0.68875
 45.3445	0.688751
 45.3545	0.688751
 45.3645	0.688752
 45.3745	0.688753
 45.3845	0.688753
 45.3945	0.688754
 45.4045	0.688755
 45.4145	0.688756
 45.4245	0.688756
 45.4345	0.688757
 45.4445	0.688758
 45.4545	0.688758
 45.4645	0.688759
 45.4745	0.68876
 45.4845	0.688761
 45.4945	0.688761
 45.5046	0.688762
 45.5146	0.688763
 45.5246	0.688763
 45.5346	0.688764
 45.5446	0.688765
 45.5546	0.688766
 45.5646	0.688766
 45.5746	0.688767
 45.5846	0.688768
 45.5946	0.688768
 45.6046	0.688769
 45.6146	0.68877
 45.6246	0.688771
 45.6346	0.688771
 45.6446	0.688772
 45.6546	0.688773
 45.6646	0.688773
 45.6746	0.688774
 45.6846	0.688775
 45.6946	0.688775
 45.7046	0.688776
 45.7146	0.688777
 45.7246	0.688778
 45.7346	0.688778
 45.7446	0.688779
 45.7546	0.68878
 45.7646	0.68878
 45.7746	0.688781
 45.7846	0.688782
 45.7946	0.688783
 45.8046	0.688783
 45.8146	0.688784
 45.8246	0.688785
 45.8346	0.688785
 45.8446	0.688786
 45.8546	0.688787
 45.8646	0.688788
 45.8746	0.688788
 45.8846	0.688789
 45.8946	0.68879
 45.9046	0.68879
 45.9146	0.688791
 45.9246	0.688792
 45.9346	0.688793
 45.9446	0.688793
 45.9546	0.688794
 45.9646	0.688795
 45.9746	0.688795
 45.9846	0.688796
 45.9946	0.688797
 46.0046	0.688797
 46.0146	0.688798
 46.0246	0.688799
 46.0346	0.6888
 46.0446	0.6888
 46.0546	0.688801
 46.0646	0.688802
 46.0746	0.688802
 46.0846	0.688803
 46.0946	0.688804
 46.1046	0.688805
 46.1146	0.688805
 46.1246	0.688806
 46.1346	0.688807
 46.1446	0.688807
 46.1546	0.688808
 46.1646	0.688809
 46.1746	0.68881
 46.1846	0.68881
 46.1946	0.688811
 46.2046	0.688812
 46.2146	0.688812
 46.2246	0.688813
 46.2346	0.688814
 46.2446	0.688815
 46.2546	0.688815
 46.2646	0.688816
 46.2746	0.688817
 46.2846	0.688817
 46.2946	0.688818
 46.3046	0.688819
 46.3146	0.688819
 46.3246	0.68882
 46.3346	0.688821
 46.3446	0.688822
 46.3546	0.688822
 46.3646	0.688823
 46.3746	0.688824
 46.3846	0.688824
 46.3946	0.688825
 46.4046	0.688826
 46.4146	0.688827
 46.4246	0.688827
 46.4346	0.688828
 46.4446	0.688829
 46.4546	0.688829
 46.4646	0.68883
 46.4746	0.688831
 46.4846	0.688832
 46.4946	0.688832
 46.5047	0.688833
 46.5147	0.688834
 46.5247	0.688834
 46.5347	0.688835
 46.5447	0.688836
 46.5547	0.688837
 46.5647	0.688837
 46.5747	0.688838
 46.5847	0.688839
 46.5947	0.688839
 46.6047	0.68884
 46.6147	0.688841
 46.6247	0.688841
 46.6347	0.688842
 46.6447	0.688843
 46.6547	0.688844
 46.6647	0.688844
 46.6747	0.688845
 46.6847	0.688846
 46.6947	0.688846
 46.7047	0.688847
 46.7147	0.688848
 46.7247	0.688849
 46.7347	0.688849
 46.7447	0.68885
 46.7547	0.688851
 46.7647	0.688851
 46.7747	0.688852
 46.7847	0.688853
 46.7947	0.688854
 46.8047	0.688854
 46.8147	0.688855
 46.8247	0.688856
 46.8347	0.688856
 46.8447	0.688857
 46.8547	0.688858
 46.8647	0.688859
 46.8747	0.688859
 46.8847	0.68886
 46.8947	0.688861
 46.9047	0.688861
 46.9147	0.688862
 46.9247	0.688863
 46.9347	0.688864
 46.9447	0.688864
 46.9547	0.688865
 46.9647	0.688866
 46.9747	0.688866
 46.9847	0.688867
 46.9947	0.688868
 47.0047	0.688868
 47.0147	0.688869
 47.0247	0.68887
 47.0347	0.688871
 47.0447	0.688871
 47.0547	0.688872
 47.0647	0.688873
 47.0747	0.688873
 47.0847	0.688874
 47.0947	0.688875
 47.1047	0.688876
 47.1147	0.688876
 47.1247	0.688877
 47.1347	0.688878
 47.1447	0.688878
 47.1547	0.688879
 47.1647	0.68888
 47.1747	0.688881
 47.1847	0.688881
 47.1947	0.688882
 47.2047	0.688883
 47.2147	0.688883
 47.2247	0.688884
 47.2347	0.688885
 47.2447	0.688886
 47.2547	0.688886
 47.2647	0.688887
 47.2747	0.688888
 47.2847	0.688888
 47.2947	0.688889
 47.3047	0.68889
 47.3147	0.68889
 47.3247	0.688891
 47.3347	0.688892
 47.3447	0.688893
 47.3547	0.688893
 47.3647	0.688894
 47.3747	0.688895
 47.3847	0.688895
 47.3947	0.688896
 47.4047	0.688897
 47.4147	0.688898
 47.4247	0.688898
 47.4347	0.688899
 47.4447	0.6889
 47.4547	0.6889
 47.4647	0.688901
 47.4747	0.688902
 47.4847	0.688903
 47.4947	0.688903
 47.5048	0.688904
 47.5148	0.688905
 47.5248	0.688905
 47.5348	0.688906
 47.5448	0.688907
 47.5548	0.688908
 47.5648	0.688908
 47.5748	0.688909
 47.5848	0.68891
 47.5948	0.68891
 47.6048	0.688911
 47.6148	0.688912
 47.6248	0.688912
 47.6348	0.688913
 47.6448	0.688914
 47.6548	0.688915
 47.6648	0.688915
 47.6748	0.688916
 47.6848	0.688917
 47.6948	0.688917
 47.7048	0.688918
 47.7148	0.688919
 47.7248	0.68892
 47.7348	0.68892
 47.7448	0.688921
 47.7548	0.688922
 47.7648	0.688922
 47.7748	0.688923
 47.7848	0.688924
 47.7948	0.688925
 47.8048	0.688925
 47.8148	0.688926
 47.8248	0.688927
 47.8348	0.688927
 47.8448	0.688928
 47.8548	0.688929
 47.8648	0.68893
 47.8748	0.68893
 47.8848	0.688931
 47.8948	0.688932
 47.9048	0.688932
 47.9148	0.688933
 47.9248	0.688934
 47.9348	0.688934
 47.9448	0.688935
 47.9548	0.688936
 47.9648	0.688937
 47.9748	0.688937
 47.9848	0.688938
 47.9948	0.688939
 48.0048	0.688939
 48.0148	0.68894
 48.0248	0.688941
 48.0348	0.688942
 48.0448	0.688942
 48.0548	0.688943
 48.0648	0.688944
 48.0748	0.688944
 48.0848	0.688945
 48.0948	0.688946
 48.1048	0.688947
 48.1148	0.688947
 48.1248	0.688948
 48.1348	0.688949
 48.1448	0.688949
 48.1548	0.68895
 48.1648	0.688951
 48.1748	0.688952
 48.1848	0.688952
 48.1948	0.688953
 48.2048	0.688954
 48.2148	0.688954
 48.2248	0.688955
 48.2348	0.688956
 48.2448	0.688956
 48.2548	0.688957
 48.2648	0.688958
 48.2748	0.688959
 48.2848	0.688959
 48.2948	0.68896
 48.3048	0.688961
 48.3148	0.688961
 48.3248	0.688962
 48.3348	0.688963
 48.3448	0.688964
 48.3548	0.688964
 48.3648	0.688965
 48.3748	0.688966
 48.3848	0.688966
 48.3948	0.688967
 48.4048	0.688968
 48.4148	0.688969
 48.4248	0.688969
 48.4348	0.68897
 48.4448	0.688971
 48.4548	0.688971
 48.4648	0.688972
 48.4748	0.688973
 48.4848	0.688974
 48.4948	0.688974
 48.5049	0.688975
 48.5149	0.688976
 48.5249	0.688976
 48.5349	0.688977
 48.5449	0.688978
 48.5549	0.688978
 48.5649	0.688979
 48.5749	0.68898
 48.5849	0.688981
 48.5949	0.688981
 48.6049	0.688982
 48.6149	0.688983
 48.6249	0.688983
 48.6349	0.688984
 48.6449	0.688985
 48.6549	0.688986
 48.6649	0.688986
 48.6749	0.688987
 48.6849	0.688988
 48.6949	0.688988
 48.7049	0.688989
 48.7149	0.68899
 48.7249	0.688991
 48.7349	0.688991
 48.7449	0.688992
 48.7549	0.688993
 48.7649	0.688993
 48.7749	0.688994
 48.7849	0.688995
 48.7949	0.688996
 48.8049	0.688996
 48.8149	0.688997
 48.8249	0.688998
 48.8349	0.688998
 48.8449	0.688999
 48.8549	0.689
 48.8649	0.689
 48.8749	0.689001
 48.8849	0.689002
 48.8949	0.689003
 48.9049	0.689003
 48.9149	0.689004
 48.9249	0.689005
 48.9349	0.689005
 48.9449	0.689006
 48.9549	0.689007
 48.9649	0.689008
 48.9749	0.689008
 48.9849	0.689009
 48.9949	0.68901
 49.0049	0.68901
 49.0149	0.689011
 49.0249	0.689012
 49.0349	0.689013
 49.0449	0.689013
 49.0549	0.689014
 49.0649	0.689015
 49.0749	0.689015
 49.0849	0.689016
 49.0949	0.689017
 49.1049	0.689018
 49.1149	0.689018
 49.1249	0.689019
 49.1349	0.68902
 49.1449	0.68902
 49.1549	0.689021
 49.1649	0.689022
 49.1749	0.689022
 49.1849	0.689023
 49.1949	0.689024
 49.2049	0.689025
 49.2149	0.689025
 49.2249	0.689026
 49.2349	0.689027
 49.2449	0.689027
 49.2549	0.689028
 49.2649	0.689029
 49.2749	0.68903
 49.2849	0.68903
 49.2949	0.689031
 49.3049	0.689032
 49.3149	0.689032
 49.3249	0.689033
 49.3349	0.689034
 49.3449	0.689035
 49.3549	0.689035
 49.3649	0.689036
 49.3749	0.689037
 49.3849	0.689037
 49.3949	0.689038
 49.4049	0.689039
 49.4149	0.68904
 49.4249	0.68904
 49.4349	0.689041
 49.4449	0.689042
 49.4549	0.689042
 49.4649	0.689043
 49.4749	0.689044
 49.4849	0.689045
 49.4949	0.689045
 49.505	0.689046
 49.515	0.689047
 49.525	0.689047
 49.535	0.689048
 49.545	0.689049
 49.555	0.689049
 49.565	0.68905
 49.575	0.689051
 49.585	0.689052
 49.595	0.689052
 49.605	0.689053
 49.615	0.689054
 49.625	0.689054
 49.635	0.689055
 49.645	0.689056
 49.655	0.689057
 49.665	0.689057
 49.675	0.689058
 49.685	0.689059
 49.695	0.689059
 49.705	0.68906
 49.715	0.689061
 49.725	0.689062
 49.735	0.689062
 49.745	0.689063
 49.755	0.689064
 49.765	0.689064
 49.775	0.689065
 49.785	0.689066
 49.795	0.689067
 49.805	0.689067
 49.815	0.689068
 49.825	0.689069
 49.835	0.689069
 49.845	0.68907
 49.855	0.689071
 49.865	0.689071
 49.875	0.689072
 49.885	0.689073
 49.895	0.689074
 49.905	0.689074
 49.915	0.689075
 49.925	0.689076
 49.935	0.689076
 49.945	0.689077
 49.955	0.689078
 49.965	0.689079
 49.975	0.689079
 49.985	0.68908
 49.995	0.689081
 50.005	0.689081
 50.015	0.689082
 50.025	0.689083
 50.035	0.689084
 50.045	0.689084
 50.055	0.689085
 50.065	0.689086
 50.075	0.689086
 50.085	0.689087
 50.095	0.689088
 50.105	0.689089
 50.115	0.689089
 50.125	0.68909
 50.135	0.689091
 50.145	0.689091
 50.155	0.689092
 50.165	0.689093
 50.175	0.689093
 50.185	0.689094
 50.195	0.689095
 50.205	0.689096
 50.215	0.689096
 50.225	0.689097
 50.235	0.689098
 50.245	0.689098
 50.255	0.689099
 50.265	0.6891
 50.275	0.689101
 50.285	0.689101
 50.295	0.689102
 50.305	0.689103
 50.315	0.689103
 50.325	0.689104
 50.335	0.689105
 50.345	0.689106
 50.355	0.689106
 50.365	0.689107
 50.375	0.689108
 50.385	0.689108
 50.395	0.689109
 50.405	0.68911
 50.415	0.689111
 50.425	0.689111
 50.435	0.689112
 50.445	0.689113
 50.455	0.689113
 50.465	0.689114
 50.475	0.689115
 50.485	0.689115
 50.495	0.689116
 50.5051	0.689117
 50.5151	0.689118
 50.5251	0.689118
 50.5351	0.689119
 50.5451	0.68912
 50.5551	0.68912
 50.5651	0.689121
 50.5751	0.689122
 50.5851	0.689123
 50.5951	0.689123
 50.6051	0.689124
 50.6151	0.689125
 50.6251	0.689125
 50.6351	0.689126
 50.6451	0.689127
 50.6551	0.689128
 50.6651	0.689128
 50.6751	0.689129
 50.6851	0.68913
 50.6951	0.68913
 50.7051	0.689131
 50.7151	0.689132
 50.7251	0.689133
 50.7351	0.689133
 50.7451	0.689134
 50.7551	0.689135
 50.7651	0.689135
 50.7751	0.689136
 50.7851	0.689137
 50.7951	0.689137
 50.8051	0.689138
 50.8151	0.689139
 50.8251	0.68914
 50.8351	0.68914
 50.8451	0.689141
 50.8551	0.689142
 50.8651	0.689142
 50.8751	0.689143
 50.8851	0.689144
 50.8951	0.689145
 50.9051	0.689145
 50.9151	0.689146
 50.9251	0.689147
 50.9351	0.689147
 50.9451	0.689148
 50.9551	0.689149
 50.9651	0.68915
 50.9751	0.68915
 50.9851	0.689151
 50.9951	0.689152
 51.0051	0.689152
 51.0151	0.689153
 51.0251	0.689154
 51.0351	0.689155
 51.0451	0.689155
 51.0551	0.689156
 51.0651	0.689157
 51.0751	0.689157
 51.0851	0.689158
 51.0951	0.689159
 51.1051	0.689159
 51.1151	0.68916
 51.1251	0.689161
 51.1351	0.689162
 51.1451	0.689162
 51.1551	0.689163
 51.1651	0.689164
 51.1751	0.689164
 51.1851	0.689165
 51.1951	0.689166
 51.2051	0.689167
 51.2151	0.689167
 51.2251	0.689168
 51.2351	0.689169
 51.2451	0.689169
 51.2551	0.68917
 51.2651	0.689171
 51.2751	0.689172
 51.2851	0.689172
 51.2951	0.689173
 51.3051	0.689174
 51.3151	0.689174
 51.3251	0.689175
 51.3351	0.689176
 51.3451	0.689177
 51.3551	0.689177
 51.3651	0.689178
 51.3751	0.689179
 51.3851	0.689179
 51.3951	0.68918
 51.4051	0.689181
 51.4151	0.689181
 51.4251	0.689182
 51.4351	0.689183
 51.4451	0.689184
 51.4551	0.689184
 51.4651	0.689185
 51.4751	0.689186
 51.4851	0.689186
 51.4951	0.689187
 51.5052	0.689188
 51.5152	0.689189
 51.5252	0.689189
 51.5352	0.68919
 51.5452	0.689191
 51.5552	0.689191
 51.5652	0.689192
 51.5752	0.689193
 51.5852	0.689194
 51.5952	0.689194
 51.6052	0.689195
 51.6152	0.689196
 51.6252	0.689196
 51.6352	0.689197
 51.6452	0.689198
 51.6552	0.689199
 51.6652	0.689199
 51.6752	0.6892
 51.6852	0.689201
 51.6952	0.689201
 51.7052	0.689202
 51.7152	0.689203
 51.7252	0.689203
 51.7352	0.689204
 51.7452	0.689205
 51.7552	0.689206
 51.7652	0.689206
 51.7752	0.689207
 51.7852	0.689208
 51.7952	0.689208
 51.8052	0.689209
 51.8152	0.68921
 51.8252	0.689211
 51.8352	0.689211
 51.8452	0.689212
 51.8552	0.689213
 51.8652	0.689213
 51.8752	0.689214
 51.8852	0.689215
 51.8952	0.689216
 51.9052	0.689216
 51.9152	0.689217
 51.9252	0.689218
 51.9352	0.689218
 51.9452	0.689219
 51.9552	0.68922
 51.9652	0.689221
 51.9752	0.689221
 51.9852	0.689222
 51.9952	0.689223
 52.0052	0.689223
 52.0152	0.689224
 52.0252	0.689225
 52.0352	0.689226
 52.0452	0.689226
 52.0552	0.689227
 52.0652	0.689228
 52.0752	0.689228
 52.0852	0.689229
 52.0952	0.68923
 52.1052	0.68923
 52.1152	0.689231
 52.1252	0.689232
 52.1352	0.689233
 52.1452	0.689233
 52.1552	0.689234
 52.1652	0.689235
 52.1752	0.689235
 52.1852	0.689236
 52.1952	0.689237
 52.2052	0.689238
 52.2152	0.689238
 52.2252	0.689239
 52.2352	0.68924
 52.2452	0.68924
 52.2552	0.689241
 52.2652	0.689242
 52.2752	0.689243
 52.2852	0.689243
 52.2952	0.689244
 52.3052	0.689245
 52.3152	0.689245
 52.3252	0.689246
 52.3352	0.689247
 52.3452	0.689248
 52.3552	0.689248
 52.3652	0.689249
 52.3752	0.68925
 52.3852	0.68925
 52.3952	0.689251
 52.4052	0.689252
 52.4152	0.689252
 52.4252	0.689253
 52.4352	0.689254
 52.4452	0.689255
 52.4552	0.689255
 52.4652	0.689256
 52.4752	0.689257
 52.4852	0.689257
 52.4952	0.689258
 52.5053	0.689259
 52.5153	0.68926
 52.5253	0.68926
 52.5353	0.689261
 52.5453	0.689262
 52.5553	0.689262
 52.5653	0.689263
 52.5753	0.689264
 52.5853	0.689265
 52.5953	0.689265
 52.6053	0.689266
 52.6153	0.689267
 52.6253	0.689267
 52.6353	0.689268
 52.6453	0.689269
 52.6553	0.68927
 52.6653	0.68927
 52.6753	0.689271
 52.6853	0.689272
 52.6953	0.689272
 52.7053	0.689273
 52.7153	0.689274
 52.7253	0.689274
 52.7353	0.689275
 52.7453	0.689276
 52.7553	0.689277
 52.7653	0.689277
 52.7753	0.689278
 52.7853	0.689279
 52.7953	0.689279
 52.8053	0.68928
 52.8153	0.689281
 52.8253	0.689282
 52.8353	0.689282
 52.8453	0.689283
 52.8553	0.689284
 52.8653	0.689284
 52.8753	0.689285
 52.8853	0.689286
 52.8953	0.689287
 52.9053	0.689287
 52.9153	0.689288
 52.9253	0.689289
 52.9353	0.689289
 52.9453	0.68929
 52.9553	0.689291
 52.9653	0.689292
 52.9753	0.689292
 52.9853	0.689293
 52.9953	0.689294
 53.0053	0.689294
 53.0153	0.689295
 53.0253	0.689296
 53.0353	0.689296
 53.0453	0.689297
 53.0553	0.689298
 53.0653	0.689299
 53.0753	0.689299
 53.0853	0.6893
 53.0953	0.689301
 53.1053	0.689301
 53.1153	0.689302
 53.1253	0.689303
 53.1353	0.689304
 53.1453	0.689304
 53.1553	0.689305
 53.1653	0.689306
 53.1753	0.689306
 53.1853	0.689307
 53.1953	0.689308
 53.2053	0.689309
 53.2153	0.689309
 53.2253	0.68931
 53.2353	0.689311
 53.2453	0.689311
 53.2553	0.689312
 53.2653	0.689313
 53.2753	0.689314
 53.2853	0.689314
 53.2953	0.689315
 53.3053	0.689316
 53.3153	0.689316
 53.3253	0.689317
 53.3353	0.689318
 53.3453	0.689318
 53.3553	0.689319
 53.3653	0.68932
 53.3753	0.689321
 53.3853	0.689321
 53.3953	0.689322
 53.4053	0.689323
 53.4153	0.689323
 53.4253	0.689324
 53.4353	0.689325
 53.4453	0.689326
 53.4553	0.689326
 53.4653	0.689327
 53.4753	0.689328
 53.4853	0.689328
 53.4953	0.689329
 53.5054	0.68933
 53.5154	0.689331
 53.5254	0.689331
 53.5354	0.689332
 53.5454	0.689333
 53.5554	0.689333
 53.5654	0.689334
 53.5754	0.689335
 53.5854	0.689336
 53.5954	0.689336
 53.6054	0.689337
 53.6154	0.689338
 53.6254	0.689338
 53.6354	0.689339
 53.6454	0.68934
 53.6554	0.68934
 53.6654	0.689341
 53.6754	0.689342
 53.6854	0.689343
 53.6954	0.689343
 53.7054	0.689344
 53.7154	0.689345
 53.7254	0.689345
 53.7354	0.689346
 53.7454	0.689347
 53.7554	0.689348
 53.7654	0.689348
 53.7754	0.689349
 53.7854	0.68935
 53.7954	0.68935
 53.8054	0.689351
 53.8154	0.689352
 53.8254	0.689353
 53.8354	0.689353
 53.8454	0.689354
 53.8554	0.689355
 53.8654	0.689355
 53.8754	0.689356
 53.8854	0.689357
 53.8954	0.689358
 53.9054	0.689358
 53.9154	0.689359
 53.9254	0.68936
 53.9354	0.68936
 53.9454	0.689361
 53.9554	0.689362
 53.9654	0.689362
 53.9754	0.689363
 53.9854	0.689364
 53.9954	0.689365
 54.0054	0.689365
 54.0154	0.689366
 54.0254	0.689367
 54.0354	0.689367
 54.0454	0.689368
 54.0554	0.689369
 54.0654	0.68937
 54.0754	0.68937
 54.0854	0.689371
 54.0954	0.689372
 54.1054	0.689372
 54.1154	0.689373
 54.1254	0.689374
 54.1354	0.689375
 54.1454	0.689375
 54.1554	0.689376
 54.1654	0.689377
 54.1754	0.689377
 54.1854	0.689378
 54.1954	0.689379
 54.2054	0.68938
 54.2154	0.68938
 54.2254	0.689381
 54.2354	0.689382
 54.2454	0.689382
 54.2554	0.689383
 54.2654	0.689384
 54.2754	0.689384
 54.2854	0.689385
 54.2954	0.689386
 54.3054	0.689387
 54.3154	0.689387
 54.3254	0.689388
 54.3354	0.689389
 54.3454	0.689389
 54.3554	0.68939
 54.3654	0.689391
 54.3754	0.689392
 54.3854	0.689392
 54.3954	0.689393
 54.4054	0.689394
 54.4154	0.689394
 54.4254	0.689395
 54.4354	0.689396
 54.4454	0.689397
 54.4554	0.689397
 54.4654	0.689398
 54.4754	0.689399
 54.4854	0.689399
 54.4954	0.6894
 54.5055	0.689401
 54.5155	0.689402
 54.5255	0.689402
 54.5355	0.689403
 54.5455	0.689404
 54.5555	0.689404
 54.5655	0.689405
 54.5755	0.689406
 54.5855	0.689406
 54.5955	0.689407
 54.6055	0.689408
 54.6155	0.689409
 54.6255	0.689409
 54.6355	0.68941
 54.6455	0.689411
 54.6555	0.689411
 54.6655	0.689412
 54.6755	0.689413
 54.6855	0.689414
 54.6955	0.689414
 54.7055	0.689415
 54.7155	0.689416
 54.7255	0.689416
 54.7355	0.689417
 54.7455	0.689418
 54.7555	0.689419
 54.7655	0.689419
 54.7755	0.68942
 54.7855	0.689421
 54.7955	0.689421
 54.8055	0.689422
 54.8155	0.689423
 54.8255	0.689424
 54.8355	0.689424
 54.8455	0.689425
 54.8555	0.689426
 54.8655	0.689426
 54.8755	0.689427
 54.8855	0.689428
 54.8955	0.689429
 54.9055	0.689429
 54.9155	0.68943
 54.9255	0.689431
 54.9355	0.689431
 54.9455	0.689432
 54.9555	0.689433
 54.9655	0.689433
 54.9755	0.689434
 54.9855	0.689435
 54.9955	0.689436
 55.0055	0.689436
 55.0155	0.689437
 55.0255	0.689438
 55.0355	0.689438
 55.0455	0.689439
 55.0555	0.68944
 55.0655	0.689441
 55.0755	0.689441
 55.0855	0.689442
 55.0955	0.689443
 55.1055	0.689443
 55.1155	0.689444
 55.1255	0.689445
 55.1355	0.689446
 55.1455	0.689446
 55.1555	0.689447
 55.1655	0.689448
 55.1755	0.689448
 55.1855	0.689449
 55.1955	0.68945
 55.2055	0.689451
 55.2155	0.689451
 55.2255	0.689452
 55.2355	0.689453
 55.2455	0.689453
 55.2555	0.689454
 55.2655	0.689455
 55.2755	0.689455
 55.2855	0.689456
 55.2955	0.689457
 55.3055	0.689458
 55.3155	0.689458
 55.3255	0.689459
 55.3355	0.68946
 55.3455	0.68946
 55.3555	0.689461
 55.3655	0.689462
 55.3755	0.689463
 55.3855	0.689463
 55.3955	0.689464
 55.4055	0.689465
 55.4155	0.689465
 55.4255	0.689466
 55.4355	0.689467
 55.4455	0.689468
 55.4555	0.689468
 55.4655	0.689469
 55.4755	0.68947
 55.4855	0.68947
 55.4955	0.689471
 55.5056	0.689472
 55.5156	0.689473
 55.5256	0.689473
 55.5356	0.689474
 55.5456	0.689475
 55.5556	0.689475
 55.5656	0.689476
 55.5756	0.689477
 55.5856	0.689477
 55.5956	0.689478
 55.6056	0.689479
 55.6156	0.68948
 55.6256	0.68948
 55.6356	0.689481
 55.6456	0.689482
 55.6556	0.689482
 55.6656	0.689483
 55.6756	0.689484
 55.6856	0.689485
 55.6956	0.689485
 55.7056	0.689486
 55.7156	0.689487
 55.7256	0.689487
 55.7356	0.689488
 55.7456	0.689489
 55.7556	0.68949
 55.7656	0.68949
 55.7756	0.689491
 55.7856	0.689492
 55.7956	0.689492
 55.8056	0.689493
 55.8156	0.689494
 55.8256	0.689495
 55.8356	0.689495
 55.8456	0.689496
 55.8556	0.689497
 55.8656	0.689497
 55.8756	0.689498
 55.8856	0.689499
 55.8956	0.689499
 55.9056	0.6895
 55.9156	0.689501
 55.9256	0.689502
 55.9356	0.689502
 55.9456	0.689503
 55.9556	0.689504
 55.9656	0.689504
 55.9756	0.689505
 55.9856	0.689506
 55.9956	0.689507
 56.0056	0.689507
 56.0156	0.689508
 56.0256	0.689509
 56.0356	0.689509
 56.0456	0.68951
 56.0556	0.689511
 56.0656	0.689512
 56.0756	0.689512
 56.0856	0.689513
 56.0956	0.689514
 56.1056	0.689514
 56.1156	0.689515
 56.1256	0.689516
 56.1356	0.689517
 56.1456	0.689517
 56.1556	0.689518
 56.1656	0.689519
 56.1756	0.689519
 56.1856	0.68952
 56.1956	0.689521
 56.2056	0.689521
 56.2156	0.689522
 56.2256	0.689523
 56.2356	0.689524
 56.2456	0.689524
 56.2556	0.689525
 56.2656	0.689526
 56.2756	0.689526
 56.2856	0.689527
 56.2956	0.689528
 56.3056	0.689529
 56.3156	0.689529
 56.3256	0.68953
 56.3356	0.689531
 56.3456	0.689531
 56.3556	0.689532
 56.3656	0.689533
 56.3756	0.689534
 56.3856	0.689534
 56.3956	0.689535
 56.4056	0.689536
 56.4156	0.689536
 56.4256	0.689537
 56.4356	0.689538
 56.4456	0.689539
 56.4556	0.689539
 56.4656	0.68954
 56.4756	0.689541
 56.4856	0.689541
 56.4956	0.689542
 56.5057	0.689543
 56.5157	0.689543
 56.5257	0.689544
 56.5357	0.689545
 56.5457	0.689546
 56.5557	0.689546
 56.5657	0.689547
 56.5757	0.689548
 56.5857	0.689548
 56.5957	0.689549
 56.6057	0.68955
 56.6157	0.689551
 56.6257	0.689551
 56.6357	0.689552
 56.6457	0.689553
 56.6557	0.689553
 56.6657	0.689554
 56.6757	0.689555
 56.6857	0.689556
 56.6957	0.689556
 56.7057	0.689557
 56.7157	0.689558
 56.7257	0.689558
 56.7357	0.689559
 56.7457	0.68956
 56.7557	0.689561
 56.7657	0.689561
 56.7757	0.689562
 56.7857	0.689563
 56.7957	0.689563
 56.8057	0.689564
 56.8157	0.689565
 56.8257	0.689565
 56.8357	0.689566
 56.8457	0.689567
 56.8557	0.689568
 56.8657	0.689568
 56.8757	0.689569
 56.8857	0.68957
 56.8957	0.68957
 56.9057	0.689571
 56.9157	0.689572
 56.9257	0.689573
 56.9357	0.689573
 56.9457	0.689574
 56.9557	0.689575
 56.9657	0.689575
 56.9757	0.689576
 56.9857	0.689577
 56.9957	0.689578
 57.0057	0.689578
 57.0157	0.689579
 57.0257	0.68958
 57.0357	0.68958
 57.0457	0.689581
 57.0557	0.689582
 57.0657	0.689583
 57.0757	0.689583
 57.0857	0.689584
 57.0957	0.689585
 57.1057	0.689585
 57.1157	0.689586
 57.1257	0.689587
 57.1357	0.689587
 57.1457	0.689588
 57.1557	0.689589
 57.1657	0.68959
 57.1757	0.68959
 57.1857	0.689591
 57.1957	0.689592
 57.2057	0.689592
 57.2157	0.689593
 57.2257	0.689594
 57.2357	0.689595
 57.2457	0.689595
 57.2557	0.689596
 57.2657	0.689597
 57.2757	0.689597
 57.2857	0.689598
 57.2957	0.689599
 57.3057	0.6896
 57.3157	0.6896
 57.3257	0.689601
 57.3357	0.689602
 57.3457	0.689602
 57.3557	0.689603
 57.3657	0.689604
 57.3757	0.689605
 57.3857	0.689605
 57.3957	0.689606
 57.4057	0.689607
 57.4157	0.689607
 57.4257	0.689608
 57.4357	0.689609
 57.4457	0.68961
 57.4557	0.68961
 57.4657	0.689611
 57.4757	0.689612
 57.4857	0.689612
 57.4957	0.689613
 57.5058	0.689614
 57.5158	0.689614
 57.5258	0.689615
 57.5358	0.689616
 57.5458	0.689617
 57.5558	0.689617
 57.5658	0.689618
 57.5758	0.689619
 57.5858	0.689619
 57.5958	0.68962
 57.6058	0.689621
 57.6158	0.689622
 57.6258	0.689622
 57.6358	0.689623
 57.6458	0.689624
 57.6558	0.689624
 57.6658	0.689625
 57.6758	0.689626
 57.6858	0.689627
 57.6958	0.689627
 57.7058	0.689628
 57.7158	0.689629
 57.7258	0.689629
 57.7358	0.68963
 57.7458	0.689631
 57.7558	0.689632
 57.7658	0.689632
 57.7758	0.689633
 57.7858	0.689634
 57.7958	0.689634
 57.8058	0.689635
 57.8158	0.689636
 57.8258	0.689636
 57.8358	0.689637
 57.8458	0.689638
 57.8558	0.689639
 57.8658	0.689639
 57.8758	0.68964
 57.8858	0.689641
 57.8958	0.689641
 57.9058	0.689642
 57.9158	0.689643
 57.9258	0.689644
 57.9358	0.689644
 57.9458	0.689645
 57.9558	0.689646
 57.9658	0.689646
 57.9758	0.689647
 57.9858	0.689648
 57.9958	0.689649
 58.0058	0.689649
 58.0158	0.68965
 58.0258	0.689651
 58.0358	0.689651
 58.0458	0.689652
 58.0558	0.689653
 58.0658	0.689654
 58.0758	0.689654
 58.0858	0.689655
 58.0958	0.689656
 58.1058	0.689656
 58.1158	0.689657
 58.1258	0.689658
 58.1358	0.689658
 58.1458	0.689659
 58.1558	0.68966
 58.1658	0.689661
 58.1758	0.689661
 58.1858	0.689662
 58.1958	0.689663
 58.2058	0.689663
 58.2158	0.689664
 58.2258	0.689665
 58.2358	0.689666
 58.2458	0.689666
 58.2558	0.689667
 58.2658	0.689668
 58.2758	0.689668
 58.2858	0.689669
 58.2958	0.68967
 58.3058	0.689671
 58.3158	0.689671
 58.3258	0.689672
 58.3358	0.689673
 58.3458	0.689673
 58.3558	0.689674
 58.3658	0.689675
 58.3758	0.689676
 58.3858	0.689676
 58.3958	0.689677
 58.4058	0.689678
 58.4158	0.689678
 58.4258	0.689679
 58.4358	0.68968
 58.4458	0.68968
 58.4558	0.689681
 58.4658	0.689682
 58.4758	0.689683
 58.4858	0.689683
 58.4958	0.689684
 58.5059	0.689685
 58.5159	0.689685
 58.5259	0.689686
 58.5359	0.689687
 58.5459	0.689688
 58.5559	0.689688
 58.5659	0.689689
 58.5759	0.68969
 58.5859	0.68969
 58.5959	0.689691
 58.6059	0.689692
 58.6159	0.689693
 58.6259	0.689693
 58.6359	0.689694
 58.6459	0.689695
 58.6559	0.689695
 58.6659	0.689696
 58.6759	0.689697
 58.6859	0.689698
 58.6959	0.689698
 58.7059	0.689699
 58.7159	0.6897
 58.7259	0.6897
 58.7359	0.689701
 58.7459	0.689702
 58.7559	0.689702
 58.7659	0.689703
 58.7759	0.689704
 58.7859	0.689705
 58.7959	0.689705
 58.8059	0.689706
 58.8159	0.689707
 58.8259	0.689707
 58.8359	0.689708
 58.8459	0.689709
 58.8559	0.68971
 58.8659	0.68971
 58.8759	0.689711
 58.8859	0.689712
 58.8959	0.689712
 58.9059	0.689713
 58.9159	0.689714
 58.9259	0.689715
 58.9359	0.689715
 58.9459	0.689716
 58.9559	0.689717
 58.9659	0.689717
 58.9759	0.689718
 58.9859	0.689719
 58.9959	0.68972
 59.0059	0.68972
 59.0159	0.689721
 59.0259	0.689722
 59.0359	0.689722
 59.0459	0.689723
 59.0559	0.689724
 59.0659	0.689724
 59.0759	0.689725
 59.0859	0.689726
 59.0959	0.689727
 59.1059	0.689727
 59.1159	0.689728
 59.1259	0.689729
 59.1359	0.689729
 59.1459	0.68973
 59.1559	0.689731
 59.1659	0.689732
 59.1759	0.689732
 59.1859	0.689733
 59.1959	0.689734
 59.2059	0.689734
 59.2159	0.689735
 59.2259	0.689736
 59.2359	0.689737
 59.2459	0.689737
 59.2559	0.689738
 59.2659	0.689739
 59.2759	0.689739
 59.2859	0.68974
 59.2959	0.689741
 59.3059	0.689742
 59.3159	0.689742
 59.3259	0.689743
 59.3359	0.689744
 59.3459	0.689744
 59.3559	0.689745
 59.3659	0.689746
 59.3759	0.689746
 59.3859	0.689747
 59.3959	0.689748
 59.4059	0.689749
 59.4159	0.689749
 59.4259	0.68975
 59.4359	0.689751
 59.4459	0.689751
 59.4559	0.689752
 59.4659	0.689753
 59.4759	0.689754
 59.4859	0.689754
 59.4959	0.689755
 59.506	0.689756
 59.516	0.689756
 59.526	0.689757
 59.536	0.689758
 59.546	0.689759
 59.556	0.689759
 59.566	0.68976
 59.576	0.689761
 59.586	0.689761
 59.596	0.689762
 59.606	0.689763
 59.616	0.689764
 59.626	0.689764
 59.636	0.689765
 59.646	0.689766
 59.656	0.689766
 59.666	0.689767
 59.676	0.689768
 59.686	0.689768
 59.696	0.689769
 59.706	0.68977
 59.716	0.689771
 59.726	0.689771
 59.736	0.689772
 59.746	0.689773
 59.756	0.689773
 59.766	0.689774
 59.776	0.689775
 59.786	0.689776
 59.796	0.689776
 59.806	0.689777
 59.816	0.689778
 59.826	0.689778
 59.836	0.689779
 59.846	0.68978
 59.856	0.689781
 59.866	0.689781
 59.876	0.689782
 59.886	0.689783
 59.896	0.689783
 59.906	0.689784
 59.916	0.689785
 59.926	0.689786
 59.936	0.689786
 59.946	0.689787
 59.956	0.689788
 59.966	0.689788
 59.976	0.689789
 59.986	0.68979
 59.996	0.689791
 60.006	0.689791
 60.016	0.689792
 60.026	0.689793
 60.036	0.689793
 60.046	0.689794
 60.056	0.689795
 60.066	0.689795
 60.076	0.689796
 60.086	0.689797
 60.096	0.689798
 60.106	0.689798
 60.116	0.689799
 60.126	0.6898
 60.136	0.6898
 60.146	0.689801
 60.156	0.689802
 60.166	0.689803
 60.176	0.689803
 60.186	0.689804
 60.196	0.689805
 60.206	0.689805
 60.216	0.689806
 60.226	0.689807
 60.236	0.689808
 60.246	0.689808
 60.256	0.689809
 60.266	0.68981
 60.276	0.68981
 60.286	0.689811
 60.296	0.689812
 60.306	0.689813
 60.316	0.689813
 60.326	0.689814
 60.336	0.689815
 60.346	0.689815
 60.356	0.689816
 60.366	0.689817
 60.376	0.689817
 60.386	0.689818
 60.396	0.689819
 60.406	0.68982
 60.416	0.68982
 60.426	0.689821
 60.436	0.689822
 60.446	0.689822
 60.456	0.689823
 60.466	0.689824
 60.476	0.689825
 60.486	0.689825
 60.496	0.689826
 60.5061	0.689827
 60.5161	0.689827
 60.5261	0.689828
 60.5361	0.689829
 60.5461	0.68983
 60.5561	0.68983
 60.5661	0.689831
 60.5761	0.689832
 60.5861	0.689832
 60.5961	0.689833
 60.6061	0.689834
 60.6161	0.689835
 60.6261	0.689835
 60.6361	0.689836
 60.6461	0.689837
 60.6561	0.689837
 60.6661	0.689838
 60.6761	0.689839
 60.6861	0.689839
 60.6961	0.68984
 60.7061	0.689841
 60.7161	0.689842
 60.7261	0.689842
 60.7361	0.689843
 60.7461	0.689844
 60.7561	0.689844
 60.7661	0.689845
 60.7761	0.689846
 60.7861	0.689847
 60.7961	0.689847
 60.8061	0.689848
 60.8161	0.689849
 60.8261	0.689849
 60.8361	0.68985
 60.8461	0.689851
 60.8561	0.689852
 60.8661	0.689852
 60.8761	0.689853
 60.8861	0.689854
 60.8961	0.689854
 60.9061	0.689855
 60.9161	0.689856
 60.9261	0.689857
 60.9361	0.689857
 60.9461	0.689858
 60.9561	0.689859
 60.9661	0.689859
 60.9761	0.68986
 60.9861	0.689861
 60.9961	0.689861
 61.0061	0.689862
 61.0161	0.689863
 61.0261	0.689864
 61.0361	0.689864
 61.0461	0.689865
 61.0561	0.689866
 61.0661	0.689866
 61.0761	0.689867
 61.0861	0.689868
 61.0961	0.689869
 61.1061	0.689869
 61.1161	0.68987
 61.1261	0.689871
 61.1361	0.689871
 61.1461	0.689872
 61.1561	0.689873
 61.1661	0.689874
 61.1761	0.689874
 61.1861	0.689875
 61.1961	0.689876
 61.2061	0.689876
 61.2161	0.689877
 61.2261	0.689878
 61.2361	0.689879
 61.2461	0.689879
 61.2561	0.68988
 61.2661	0.689881
 61.2761	0.689881
 61.2861	0.689882
 61.2961	0.689883
 61.3061	0.689883
 61.3161	0.689884
 61.3261	0.689885
 61.3361	0.689886
 61.3461	0.689886
 61.3561	0.689887
 61.3661	0.689888
 61.3761	0.689888
 61.3861	0.689889
 61.3961	0.68989
 61.4061	0.689891
 61.4161	0.689891
 61.4261	0.689892
 61.4361	0.689893
 61.4461	0.689893
 61.4561	0.689894
 61.4661	0.689895
 61.4761	0.689896
 61.4861	0.689896
 61.4961	0.689897
 61.5062	0.689898
 61.5162	0.689898
 61.5262	0.689899
 61.5362	0.6899
 61.5462	0.689901
 61.5562	0.689901
 61.5662	0.689902
 61.5762	0.689903
 61.5862	0.689903
 61.5962	0.689904
 61.6062	0.689905
 61.6162	0.689905
 61.6262	0.689906
 61.6362	0.689907
 61.6462	0.689908
 61.6562	0.689908
 61.6662	0.689909
 61.6762	0.68991
 61.6862	0.68991
 61.6962	0.689911
 61.7062	0.689912
 61.7162	0.689913
 61.7262	0.689913
 61.7362	0.689914
 61.7462	0.689915
 61.7562	0.689915
 61.7662	0.689916
 61.7762	0.689917
 61.7862	0.689918
 61.7962	0.689918
 61.8062	0.689919
 61.8162	0.68992
 61.8262	0.68992
 61.8362	0.689921
 61.8462	0.689922
 61.8562	0.689923
 61.8662	0.689923
 61.8762	0.689924
 61.8862	0.689925
 61.8962	0.689925
 61.9062	0.689926
 61.9162	0.689927
 61.9262	0.689927
 61.9362	0.689928
 61.9462	0.689929
 61.9562	0.68993
 61.9662	0.68993
 61.9762	0.689931
 61.9862	0.689932
 61.9962	0.689932
 62.0062	0.689933
 62.0162	0.689934
 62.0262	0.689935
 62.0362	0.689935
 62.0462	0.689936
 62.0562	0.689937
 62.0662	0.689937
 62.0762	0.689938
 62.0862	0.689939
 62.0962	0.68994
 62.1062	0.68994
 62.1162	0.689941
 62.1262	0.689942
 62.1362	0.689942
 62.1462	0.689943
 62.1562	0.689944
 62.1662	0.689945
 62.1762	0.689945
 62.1862	0.689946
 62.1962	0.689947
 62.2062	0.689947
 62.2162	0.689948
 62.2262	0.689949
 62.2362	0.689949
 62.2462	0.68995
 62.2562	0.689951
 62.2662	0.689952
 62.2762	0.689952
 62.2862	0.689953
 62.2962	0.689954
 62.3062	0.689954
 62.3162	0.689955
 62.3262	0.689956
 62.3362	0.689957
 62.3462	0.689957
 62.3562	0.689958
 62.3662	0.689959
 62.3762	0.689959
 62.3862	0.68996
 62.3962	0.689961
 62.4062	0.689962
 62.4162	0.689962
 62.4262	0.689963
 62.4362	0.689964
 62.4462	0.689964
 62.4562	0.689965
 62.4662	0.689966
 62.4762	0.689967
 62.4862	0.689967
 62.4962	0.689968
 62.5063	0.689969
 62.5163	0.689969
 62.5263	0.68997
 62.5363	0.689971
 62.5463	0.689971
 62.5563	0.689972
 62.5663	0.689973
 62.5763	0.689974
 62.5863	0.689974
 62.5963	0.689975
 62.6063	0.689976
 62.6163	0.689976
 62.6263	0.689977
 62.6363	0.689978
 62.6463	0.689979
 62.6563	0.689979
 62.6663	0.68998
 62.6763	0.689981
 62.6863	0.689981
 62.6963	0.689982
 62.7063	0.689983
 62.7163	0.689984
 62.7263	0.689984
 62.7363	0.689985
 62.7463	0.689986
 62.7563	0.689986
 62.7663	0.689987
 62.7763	0.689988
 62.7863	0.689989
 62.7963	0.689989
 62.8063	0.68999
 62.8163	0.689991
 62.8263	0.689991
 62.8363	0.689992
 62.8463	0.689993
 62.8563	0.689994
 62.8663	0.689994
 62.8763	0.689995
 62.8863	0.689996
 62.8963	0.689996
 62.9063	0.689997
 62.9163	0.689998
 62.9263	0.689998
 62.9363	0.689999
 62.9463	0.69
 62.9563	0.690001
 62.9663	0.690001
 62.9763	0.690002
 62.9863	0.690003
 62.9963	0.690003
 63.0063	0.690004
 63.0163	0.690005
 63.0263	0.690006
 63.0363	0.690006
 63.0463	0.690007
 63.0563	0.690008
 63.0663	0.690008
 63.0763	0.690009
 63.0863	0.69001
 63.0963	0.690011
 63.1063	0.690011
 63.1163	0.690012
 63.1263	0.690013
 63.1363	0.690013
 63.1463	0.690014
 63.1563	0.690015
 63.1663	0.690016
 63.1763	0.690016
 63.1863	0.690017
 63.1963	0.690018
 63.2063	0.690018
 63.2163	0.690019
 63.2263	0.69002
 63.2363	0.69002
 63.2463	0.690021
 63.2563	0.690022
 63.2663	0.690023
 63.2763	0.690023
 63.2863	0.690024
 63.2963	0.690025
 63.3063	0.690025
 63.3163	0.690026
 63.3263	0.690027
 63.3363	0.690028
 63.3463	0.690028
 63.3563	0.690029
 63.3663	0.69003
 63.3763	0.69003
 63.3863	0.690031
 63.3963	0.690032
 63.4063	0.690033
 63.4163	0.690033
 63.4263	0.690034
 63.4363	0.690035
 63.4463	0.690035
 63.4563	0.690036
 63.4663	0.690037
 63.4763	0.690038
 63.4863	0.690038
 63.4963	0.690039
 63.5064	0.69004
 63.5164	0.69004
 63.5264	0.690041
 63.5364	0.690042
 63.5464	0.690042
 63.5564	0.690043
 63.5664	0.690044
 63.5764	0.690045
 63.5864	0.690045
 63.5964	0.690046
 63.6064	0.690047
 63.6164	0.690047
 63.6264	0.690048
 63.6364	0.690049
 63.6464	0.69005
 63.6564	0.69005
 63.6664	0.690051
 63.6764	0.690052
 63.6864	0.690052
 63.6964	0.690053
 63.7064	0.690054
 63.7164	0.690055
 63.7264	0.690055
 63.7364	0.690056
 63.7464	0.690057
 63.7564	0.690057
 63.7664	0.690058
 63.7764	0.690059
 63.7864	0.69006
 63.7964	0.69006
 63.8064	0.690061
 63.8164	0.690062
 63.8264	0.690062
 63.8364	0.690063
 63.8464	0.690064
 63.8564	0.690064
 63.8664	0.690065
 63.8764	0.690066
 63.8864	0.690067
 63.8964	0.690067
 63.9064	0.690068
 63.9164	0.690069
 63.9264	0.690069
 63.9364	0.69007
 63.9464	0.690071
 63.9564	0.690072
 63.9664	0.690072
 63.9764	0.690073
 63.9864	0.690074
 63.9964	0.690074
 64.0064	0.690075
 64.0164	0.690076
 64.0264	0.690077
 64.0364	0.690077
 64.0464	0.690078
 64.0564	0.690079
 64.0664	0.690079
 64.0764	0.69008
 64.0864	0.690081
 64.0964	0.690082
 64.1064	0.690082
 64.1164	0.690083
 64.1264	0.690084
 64.1364	0.690084
 64.1464	0.690085
 64.1564	0.690086
 64.1664	0.690086
 64.1764	0.690087
 64.1864	0.690088
 64.1964	0.690089
 64.2064	0.690089
 64.2164	0.69009
 64.2264	0.690091
 64.2364	0.690091
 64.2464	0.690092
 64.2564	0.690093
 64.2664	0.690094
 64.2764	0.690094
 64.2864	0.690095
 64.2964	0.690096
 64.3064	0.690096
 64.3164	0.690097
 64.3264	0.690098
 64.3364	0.690099
 64.3464	0.690099
 64.3564	0.6901
 64.3664	0.690101
 64.3764	0.690101
 64.3864	0.690102
 64.3964	0.690103
 64.4064	0.690104
 64.4164	0.690104
 64.4264	0.690105
 64.4364	0.690106
 64.4464	0.690106
 64.4564	0.690107
 64.4664	0.690108
 64.4764	0.690108
 64.4864	0.690109
 64.4964	0.69011
 64.5065	0.690111
 64.5165	0.690111
 64.5265	0.690112
 64.5365	0.690113
 64.5465	0.690113
 64.5565	0.690114
 64.5665	0.690115
 64.5765	0.690116
 64.5865	0.690116
 64.5965	0.690117
 64.6065	0.690118
 64.6165	0.690118
 64.6265	0.690119
 64.6365	0.69012
 64.6465	0.690121
 64.6565	0.690121
 64.6665	0.690122
 64.6765	0.690123
 64.6865	0.690123
 64.6965	0.690124
 64.7065	0.690125
 64.7165	0.690126
 64.7265	0.690126
 64.7365	0.690127
 64.7465	0.690128
 64.7565	0.690128
 64.7665	0.690129
 64.7765	0.69013
 64.7865	0.69013
 64.7965	0.690131
 64.8065	0.690132
 64.8165	0.690133
 64.8265	0.690133
 64.8365	0.690134
 64.8465	0.690135
 64.8565	0.690135
 64.8665	0.690136
 64.8765	0.690137
 64.8865	0.690138
 64.8965	0.690138
 64.9065	0.690139
 64.9165	0.69014
 64.9265	0.69014
 64.9365	0.690141
 64.9465	0.690142
 64.9565	0.690143
 64.9665	0.690143
 64.9765	0.690144
 64.9865	0.690145
 64.9965	0.690145
 65.0065	0.690146
 65.0165	0.690147
 65.0265	0.690148
 65.0365	0.690148
 65.0465	0.690149
 65.0565	0.69015
 65.0665	0.69015
 65.0765	0.690151
 65.0865	0.690152
 65.0965	0.690152
 65.1065	0.690153
 65.1165	0.690154
 65.1265	0.690155
 65.1365	0.690155
 65.1465	0.690156
 65.1565	0.690157
 65.1665	0.690157
 65.1765	0.690158
 65.1865	0.690159
 65.1965	0.69016
 65.2065	0.69016
 65.2165	0.690161
 65.2265	0.690162
 65.2365	0.690162
 65.2465	0.690163
 65.2565	0.690164
 65.2665	0.690165
 65.2765	0.690165
 65.2865	0.690166
 65.2965	0.690167
 65.3065	0.690167
 65.3165	0.690168
 65.3265	0.690169
 65.3365	0.69017
 65.3465	0.69017
 65.3565	0.690171
 65.3665	0.690172
 65.3765	0.690172
 65.3865	0.690173
 65.3965	0.690174
 65.4065	0.690175
 65.4165	0.690175
 65.4265	0.690176
 65.4365	0.690177
 65.4465	0.690177
 65.4565	0.690178
 65.4665	0.690179
 65.4765	0.690179
 65.4865	0.69018
 65.4965	0.690181
 65.5066	0.690182
 65.5166	0.690182
 65.5266	0.690183
 65.5366	0.690184
 65.5466	0.690184
 65.5566	0.690185
 65.5666	0.690186
 65.5766	0.690187
 65.5866	0.690187
 65.5966	0.690188
 65.6066	0.690189
 65.6166	0.690189
 65.6266	0.69019
 65.6366	0.690191
 65.6466	0.690192
 65.6566	0.690192
 65.6666	0.690193
 65.6766	0.690194
 65.6866	0.690194
 65.6966	0.690195
 65.7066	0.690196
 65.7166	0.690197
 65.7266	0.690197
 65.7366	0.690198
 65.7466	0.690199
 65.7566	0.690199
 65.7666	0.6902
 65.7766	0.690201
 65.7866	0.690201
 65.7966	0.690202
 65.8066	0.690203
 65.8166	0.690204
 65.8266	0.690204
 65.8366	0.690205
 65.8466	0.690206
 65.8566	0.690206
 65.8666	0.690207
 65.8766	0.690208
 65.8866	0.690209
 65.8966	0.690209
 65.9066	0.69021
 65.9166	0.690211
 65.9266	0.690211
 65.9366	0.690212
 65.9466	0.690213
 65.9566	0.690214
 65.9666	0.690214
 65.9766	0.690215
 65.9866	0.690216
 65.9966	0.690216
 66.0066	0.690217
 66.0166	0.690218
 66.0266	0.690219
 66.0366	0.690219
 66.0466	0.69022
 66.0566	0.690221
 66.0666	0.690221
 66.0766	0.690222
 66.0866	0.690223
 66.0966	0.690223
 66.1066	0.690224
 66.1166	0.690225
 66.1266	0.690226
 66.1366	0.690226
 66.1466	0.690227
 66.1566	0.690228
 66.1666	0.690228
 66.1766	0.690229
 66.1866	0.69023
 66.1966	0.690231
 66.2066	0.690231
 66.2166	0.690232
 66.2266	0.690233
 66.2366	0.690233
 66.2466	0.690234
 66.2566	0.690235
 66.2666	0.690236
 66.2766	0.690236
 66.2866	0.690237
 66.2966	0.690238
 66.3066	0.690238
 66.3166	0.690239
 66.3266	0.69024
 66.3366	0.690241
 66.3466	0.690241
 66.3566	0.690242
 66.3666	0.690243
 66.3766	0.690243
 66.3866	0.690244
 66.3966	0.690245
 66.4066	0.690245
 66.4166	0.690246
 66.4266	0.690247
 66.4366	0.690248
 66.4466	0.690248
 66.4566	0.690249
 66.4666	0.69025
 66.4766	0.69025
 66.4866	0.690251
 66.4966	0.690252
 66.5067	0.690253
 66.5167	0.690253
 66.5267	0.690254
 66.5367	0.690255
 66.5467	0.690255
 66.5567	0.690256
 66.5667	0.690257
 66.5767	0.690258
 66.5867	0.690258
 66.5967	0.690259
 66.6067	0.69026
 66.6167	0.69026
 66.6267	0.690261
 66.6367	0.690262
 66.6467	0.690263
 66.6567	0.690263
 66.6667	0.690264
 66.6767	0.690265
 66.6867	0.690265
 66.6967	0.690266
 66.7067	0.690267
 66.7167	0.690267
 66.7267	0.690268
 66.7367	0.690269
 66.7467	0.69027
 66.7567	0.69027
 66.7667	0.690271
 66.7767	0.690272
 66.7867	0.690272
 66.7967	0.690273
 66.8067	0.690274
 66.8167	0.690275
 66.8267	0.690275
 66.8367	0.690276
 66.8467	0.690277
 66.8567	0.690277
 66.8667	0.690278
 66.8767	0.690279
 66.8867	0.69028
 66.8967	0.69028
 66.9067	0.690281
 66.9167	0.690282
 66.9267	0.690282
 66.9367	0.690283
 66.9467	0.690284
 66.9567	0.690285
 66.9667	0.690285
 66.9767	0.690286
 66.9867	0.690287
 66.9967	0.690287
 67.0067	0.690288
 67.0167	0.690289
 67.0267	0.690289
 67.0367	0.69029
 67.0467	0.690291
 67.0567	0.690292
 67.0667	0.690292
 67.0767	0.690293
 67.0867	0.690294
 67.0967	0.690294
 67.1067	0.690295
 67.1167	0.690296
 67.1267	0.690297
 67.1367	0.690297
 67.1467	0.690298
 67.1567	0.690299
 67.1667	0.690299
 67.1767	0.6903
 67.1867	0.690301
 67.1967	0.690302
 67.2067	0.690302
 67.2167	0.690303
 67.2267	0.690304
 67.2367	0.690304
 67.2467	0.690305
 67.2567	0.690306
 67.2667	0.690307
 67.2767	0.690307
 67.2867	0.690308
 67.2967	0.690309
 67.3067	0.690309
 67.3167	0.69031
 67.3267	0.690311
 67.3367	0.690311
 67.3467	0.690312
 67.3567	0.690313
 67.3667	0.690314
 67.3767	0.690314
 67.3867	0.690315
 67.3967	0.690316
 67.4067	0.690316
 67.4167	0.690317
 67.4267	0.690318
 67.4367	0.690319
 67.4467	0.690319
 67.4567	0.69032
 67.4667	0.690321
 67.4767	0.690321
 67.4867	0.690322
 67.4967	0.690323
 67.5068	0.690324
 67.5168	0.690324
 67.5268	0.690325
 67.5368	0.690326
 67.5468	0.690326
 67.5568	0.690327
 67.5668	0.690328
 67.5768	0.690329
 67.5868	0.690329
 67.5968	0.69033
 67.6068	0.690331
 67.6168	0.690331
 67.6268	0.690332
 67.6368	0.690333
 67.6468	0.690333
 67.6568	0.690334
 67.6668	0.690335
 67.6768	0.690336
 67.6868	0.690336
 67.6968	0.690337
 67.7068	0.690338
 67.7168	0.690338
 67.7268	0.690339
 67.7368	0.69034
 67.7468	0.690341
 67.7568	0.690341
 67.7668	0.690342
 67.7768	0.690343
 67.7868	0.690343
 67.7968	0.690344
 67.8068	0.690345
 67.8168	0.690346
 67.8268	0.690346
 67.8368	0.690347
 67.8468	0.690348
 67.8568	0.690348
 67.8668	0.690349
 67.8768	0.69035
 67.8868	0.690351
 67.8968	0.690351
 67.9068	0.690352
 67.9168	0.690353
 67.9268	0.690353
 67.9368	0.690354
 67.9468	0.690355
 67.9568	0.690356
 67.9668	0.690356
 67.9768	0.690357
 67.9868	0.690358
 67.9968	0.690358
 68.0068	0.690359
 68.0168	0.69036
 68.0268	0.69036
 68.0368	0.690361
 68.0468	0.690362
 68.0568	0.690363
 68.0668	0.690363
 68.0768	0.690364
 68.0868	0.690365
 68.0968	0.690365
 68.1068	0.690366
 68.1168	0.690367
 68.1268	0.690368
 68.1368	0.690368
 68.1468	0.690369
 68.1568	0.69037
 68.1668	0.69037
 68.1768	0.690371
 68.1868	0.690372
 68.1968	0.690373
 68.2068	0.690373
 68.2168	0.690374
 68.2268	0.690375
 68.2368	0.690375
 68.2468	0.690376
 68.2568	0.690377
 68.2668	0.690378
 68.2768	0.690378
 68.2868	0.690379
 68.2968	0.69038
 68.3068	0.69038
 68.3168	0.690381
 68.3268	0.690382
 68.3368	0.690382
 68.3468	0.690383
 68.3568	0.690384
 68.3668	0.690385
 68.3768	0.690385
 68.3868	0.690386
 68.3968	0.690387
 68.4068	0.690387
 68.4168	0.690388
 68.4268	0.690389
 68.4368	0.69039
 68.4468	0.69039
 68.4568	0.690391
 68.4668	0.690392
 68.4768	0.690392
 68.4868	0.690393
 68.4968	0.690394
 68.5069	0.690395
 68.5169	0.690395
 68.5269	0.690396
 68.5369	0.690397
 68.5469	0.690397
 68.5569	0.690398
 68.5669	0.690399
 68.5769	0.6904
 68.5869	0.6904
 68.5969	0.690401
 68.6069	0.690402
 68.6169	0.690402
 68.6269	0.690403
 68.6369	0.690404
 68.6469	0.690404
 68.6569	0.690405
 68.6669	0.690406
 68.6769	0.690407
 68.6869	0.690407
 68.6969	0.690408
 68.7069	0.690409
 68.7169	0.690409
 68.7269	0.69041
 68.7369	0.690411
 68.7469	0.690412
 68.7569	0.690412
 68.7669	0.690413
 68.7769	0.690414
 68.7869	0.690414
 68.7969	0.690415
 68.8069	0.690416
 68.8169	0.690417
 68.8269	0.690417
 68.8369	0.690418
 68.8469	0.690419
 68.8569	0.690419
 68.8669	0.69042
 68.8769	0.690421
 68.8869	0.690422
 68.8969	0.690422
 68.9069	0.690423
 68.9169	0.690424
 68.9269	0.690424
 68.9369	0.690425
 68.9469	0.690426
 68.9569	0.690426
 68.9669	0.690427
 68.9769	0.690428
 68.9869	0.690429
 68.9969	0.690429
 69.0069	0.69043
 69.0169	0.690431
 69.0269	0.690431
 69.0369	0.690432
 69.0469	0.690433
 69.0569	0.690434
 69.0669	0.690434
 69.0769	0.690435
 69.0869	0.690436
 69.0969	0.690436
 69.1069	0.690437
 69.1169	0.690438
 69.1269	0.690439
 69.1369	0.690439
 69.1469	0.69044
 69.1569	0.690441
 69.1669	0.690441
 69.1769	0.690442
 69.1869	0.690443
 69.1969	0.690444
 69.2069	0.690444
 69.2169	0.690445
 69.2269	0.690446
 69.2369	0.690446
 69.2469	0.690447
 69.2569	0.690448
 69.2669	0.690448
 69.2769	0.690449
 69.2869	0.69045
 69.2969	0.690451
 69.3069	0.690451
 69.3169	0.690452
 69.3269	0.690453
 69.3369	0.690453
 69.3469	0.690454
 69.3569	0.690455
 69.3669	0.690456
 69.3769	0.690456
 69.3869	0.690457
 69.3969	0.690458
 69.4069	0.690458
 69.4169	0.690459
 69.4269	0.69046
 69.4369	0.690461
 69.4469	0.690461
 69.4569	0.690462
 69.4669	0.690463
 69.4769	0.690463
 69.4869	0.690464
 69.4969	0.690465
 69.507	0.690466
 69.517	0.690466
 69.527	0.690467
 69.537	0.690468
 69.547	0.690468
 69.557	0.690469
 69.567	0.69047
 69.577	0.69047
 69.587	0.690471
 69.597	0.690472
 69.607	0.690473
 69.617	0.690473
 69.627	0.690474
 69.637	0.690475
 69.647	0.690475
 69.657	0.690476
 69.667	0.690477
 69.677	0.690478
 69.687	0.690478
 69.697	0.690479
 69.707	0.69048
 69.717	0.69048
 69.727	0.690481
 69.737	0.690482
 69.747	0.690483
 69.757	0.690483
 69.767	0.690484
 69.777	0.690485
 69.787	0.690485
 69.797	0.690486
 69.807	0.690487
 69.817	0.690488
 69.827	0.690488
 69.837	0.690489
 69.847	0.69049
 69.857	0.69049
 69.867	0.690491
 69.877	0.690492
 69.887	0.690492
 69.897	0.690493
 69.907	0.690494
 69.917	0.690495
 69.927	0.690495
 69.937	0.690496
 69.947	0.690497
 69.957	0.690497
 69.967	0.690498
 69.977	0.690499
 69.987	0.6905
 69.997	0.6905
 70.007	0.690501
 70.017	0.690502
 70.027	0.690502
 70.037	0.690503
 70.047	0.690504
 70.057	0.690505
 70.067	0.690505
 70.077	0.690506
 70.087	0.690507
 70.097	0.690507
 70.107	0.690508
 70.117	0.690509
 70.127	0.69051
 70.137	0.69051
 70.147	0.690511
 70.157	0.690512
 70.167	0.690512
 70.177	0.690513
 70.187	0.690514
 70.197	0.690514
 70.207	0.690515
 70.217	0.690516
 70.227	0.690517
 70.237	0.690517
 70.247	0.690518
 70.257	0.690519
 70.267	0.690519
 70.277	0.69052
 70.287	0.690521
 70.297	0.690522
 70.307	0.690522
 70.317	0.690523
 70.327	0.690524
 70.337	0.690524
 70.347	0.690525
 70.357	0.690526
 70.367	0.690527
 70.377	0.690527
 70.387	0.690528
 70.397	0.690529
 70.407	0.690529
 70.417	0.69053
 70.427	0.690531
 70.437	0.690532
 70.447	0.690532
 70.457	0.690533
 70.467	0.690534
 70.477	0.690534
 70.487	0.690535
 70.497	0.690536
 70.5071	0.690536
 70.5171	0.690537
 70.5271	0.690538
 70.5371	0.690539
 70.5471	0.690539
 70.5571	0.69054
 70.5671	0.690541
 70.5771	0.690541
 70.5871	0.690542
 70.5971	0.690543
 70.6071	0.690544
 70.6171	0.690544
 70.6271	0.690545
 70.6371	0.690546
 70.6471	0.690546
 70.6571	0.690547
 70.6671	0.690548
 70.6771	0.690549
 70.6871	0.690549
 70.6971	0.69055
 70.7071	0.690551
 70.7171	0.690551
 70.7271	0.690552
 70.7371	0.690553
 70.7471	0.690554
 70.7571	0.690554
 70.7671	0.690555
 70.7771	0.690556
 70.7871	0.690556
 70.7971	0.690557
 70.8071	0.690558
 70.8171	0.690559
 70.8271	0.690559
 70.8371	0.69056
 70.8471	0.690561
 70.8571	0.690561
 70.8671	0.690562
 70.8771	0.690563
 70.8871	0.690563
 70.8971	0.690564
 70.9071	0.690565
 70.9171	0.690566
 70.9271	0.690566
 70.9371	0.690567
 70.9471	0.690568
 70.9571	0.690568
 70.9671	0.690569
 70.9771	0.69057
 70.9871	0.690571
 70.9971	0.690571
 71.0071	0.690572
 71.0171	0.690573
 71.0271	0.690573
 71.0371	0.690574
 71.0471	0.690575
 71.0571	0.690576
 71.0671	0.690576
 71.0771	0.690577
 71.0871	0.690578
 71.0971	0.690578
 71.1071	0.690579
 71.1171	0.69058
 71.1271	0.690581
 71.1371	0.690581
 71.1471	0.690582
 71.1571	0.690583
 71.1671	0.690583
 71.1771	0.690584
 71.1871	0.690585
 71.1971	0.690585
 71.2071	0.690586
 71.2171	0.690587
 71.2271	0.690588
 71.2371	0.690588
 71.2471	0.690589
 71.2571	0.69059
 71.2671	0.69059
 71.2771	0.690591
 71.2871	0.690592
 71.2971	0.690593
 71.3071	0.690593
 71.3171	0.690594
 71.3271	0.690595
 71.3371	0.690595
 71.3471	0.690596
 71.3571	0.690597
 71.3671	0.690598
 71.3771	0.690598
 71.3871	0.690599
 71.3971	0.6906
 71.4071	0.6906
 71.4171	0.690601
 71.4271	0.690602
 71.4371	0.690603
 71.4471	0.690603
 71.4571	0.690604
 71.4671	0.690605
 71.4771	0.690605
 71.4871	0.690606
 71.4971	0.690607
 71.5072	0.690607
 71.5172	0.690608
 71.5272	0.690609
 71.5372	0.69061
 71.5472	0.69061
 71.5572	0.690611
 71.5672	0.690612
 71.5772	0.690612
 71.5872	0.690613
 71.5972	0.690614
 71.6072	0.690615
 71.6172	0.690615
 71.6272	0.690616
 71.6372	0.690617
 71.6472	0.690617
 71.6572	0.690618
 71.6672	0.690619
 71.6772	0.69062
 71.6872	0.69062
 71.6972	0.690621
 71.7072	0.690622
 71.7172	0.690622
 71.7272	0.690623
 71.7372	0.690624
 71.7472	0.690625
 71.7572	0.690625
 71.7672	0.690626
 71.7772	0.690627
 71.7872	0.690627
 71.7972	0.690628
 71.8072	0.690629
 71.8172	0.690629
 71.8272	0.69063
 71.8372	0.690631
 71.8472	0.690632
 71.8572	0.690632
 71.8672	0.690633
 71.8772	0.690634
 71.8872	0.690634
 71.8972	0.690635
 71.9072	0.690636
 71.9172	0.690637
 71.9272	0.690637
 71.9372	0.690638
 71.9472	0.690639
 71.9572	0.690639
 71.9672	0.69064
 71.9772	0.690641
 71.9872	0.690642
 71.9972	0.690642
 72.0072	0.690643
 72.0172	0.690644
 72.0272	0.690644
 72.0372	0.690645
 72.0472	0.690646
 72.0572	0.690647
 72.0672	0.690647
 72.0772	0.690648
 72.0872	0.690649
 72.0972	0.690649
 72.1072	0.69065
 72.1172	0.690651
 72.1272	0.690651
 72.1372	0.690652
 72.1472	0.690653
 72.1572	0.690654
 72.1672	0.690654
 72.1772	0.690655
 72.1872	0.690656
 72.1972	0.690656
 72.2072	0.690657
 72.2172	0.690658
 72.2272	0.690659
 72.2372	0.690659
 72.2472	0.69066
 72.2572	0.690661
 72.2672	0.690661
 72.2772	0.690662
 72.2872	0.690663
 72.2972	0.690664
 72.3072	0.690664
 72.3172	0.690665
 72.3272	0.690666
 72.3372	0.690666
 72.3472	0.690667
 72.3572	0.690668
 72.3672	0.690669
 72.3772	0.690669
 72.3872	0.69067
 72.3972	0.690671
 72.4072	0.690671
 72.4172	0.690672
 72.4272	0.690673
 72.4372	0.690673
 72.4472	0.690674
 72.4572	0.690675
 72.4672	0.690676
 72.4772	0.690676
 72.4872	0.690677
 72.4972	0.690678
 72.5073	0.690678
 72.5173	0.690679
 72.5273	0.69068
 72.5373	0.690681
 72.5473	0.690681
 72.5573	0.690682
 72.5673	0.690683
 72.5773	0.690683
 72.5873	0.690684
 72.5973	0.690685
 72.6073	0.690686
 72.6173	0.690686
 72.6273	0.690687
 72.6373	0.690688
 72.6473	0.690688
 72.6573	0.690689
 72.6673	0.69069
 72.6773	0.690691
 72.6873	0.690691
 72.6973	0.690692
 72.7073	0.690693
 72.7173	0.690693
 72.7273	0.690694
 72.7373	0.690695
 72.7473	0.690695
 72.7573	0.690696
 72.7673	0.690697
 72.7773	0.690698
 72.7873	0.690698
 72.7973	0.690699
 72.8073	0.6907
 72.8173	0.6907
 72.8273	0.690701
 72.8373	0.690702
 72.8473	0.690703
 72.8573	0.690703
 72.8673	0.690704
 72.8773	0.690705
 72.8873	0.690705
 72.8973	0.690706
 72.9073	0.690707
 72.9173	0.690708
 72.9273	0.690708
 72.9373	0.690709
 72.9473	0.69071
 72.9573	0.69071
 72.9673	0.690711
 72.9773	0.690712
 72.9873	0.690713
 72.9973	0.690713
 73.0073	0.690714
 73.0173	0.690715
 73.0273	0.690715
 73.0373	0.690716
 73.0473	0.690717
 73.0573	0.690717
 73.0673	0.690718
 73.0773	0.690719
 73.0873	0.69072
 73.0973	0.69072
 73.1073	0.690721
 73.1173	0.690722
 73.1273	0.690722
 73.1373	0.690723
 73.1473	0.690724
 73.1573	0.690725
 73.1673	0.690725
 73.1773	0.690726
 73.1873	0.690727
 73.1973	0.690727
 73.2073	0.690728
 73.2173	0.690729
 73.2273	0.69073
 73.2373	0.69073
 73.2473	0.690731
 73.2573	0.690732
 73.2673	0.690732
 73.2773	0.690733
 73.2873	0.690734
 73.2973	0.690735
 73.3073	0.690735
 73.3173	0.690736
 73.3273	0.690737
 73.3373	0.690737
 73.3473	0.690738
 73.3573	0.690739
 73.3673	0.69074
 73.3773	0.69074
 73.3873	0.690741
 73.3973	0.690742
 73.4073	0.690742
 73.4173	0.690743
 73.4273	0.690744
 73.4373	0.690744
 73.4473	0.690745
 73.4573	0.690746
 73.4673	0.690747
 73.4773	0.690747
 73.4873	0.690748
 73.4973	0.690749
 73.5074	0.690749
 73.5174	0.69075
 73.5274	0.690751
 73.5374	0.690752
 73.5474	0.690752
 73.5574	0.690753
 73.5674	0.690754
 73.5774	0.690754
 73.5874	0.690755
 73.5974	0.690756
 73.6074	0.690757
 73.6174	0.690757
 73.6274	0.690758
 73.6374	0.690759
 73.6474	0.690759
 73.6574	0.69076
 73.6674	0.690761
 73.6774	0.690762
 73.6874	0.690762
 73.6974	0.690763
 73.7074	0.690764
 73.7174	0.690764
 73.7274	0.690765
 73.7374	0.690766
 73.7474	0.690766
 73.7574	0.690767
 73.7674	0.690768
 73.7774	0.690769
 73.7874	0.690769
 73.7974	0.69077
 73.8074	0.690771
 73.8174	0.690771
 73.8274	0.690772
 73.8374	0.690773
 73.8474	0.690774
 73.8574	0.690774
 73.8674	0.690775
 73.8774	0.690776
 73.8874	0.690776
 73.8974	0.690777
 73.9074	0.690778
 73.9174	0.690779
 73.9274	0.690779
 73.9374	0.69078
 73.9474	0.690781
 73.9574	0.690781
 73.9674	0.690782
 73.9774	0.690783
 73.9874	0.690784
 73.9974	0.690784
 74.0074	0.690785
 74.0174	0.690786
 74.0274	0.690786
 74.0374	0.690787
 74.0474	0.690788
 74.0574	0.690788
 74.0674	0.690789
 74.0774	0.69079
 74.0874	0.690791
 74.0974	0.690791
 74.1074	0.690792
 74.1174	0.690793
 74.1274	0.690793
 74.1374	0.690794
 74.1474	0.690795
 74.1574	0.690796
 74.1674	0.690796
 74.1774	0.690797
 74.1874	0.690798
 74.1974	0.690798
 74.2074	0.690799
 74.2174	0.6908
 74.2274	0.690801
 74.2374	0.690801
 74.2474	0.690802
 74.2574	0.690803
 74.2674	0.690803
 74.2774	0.690804
 74.2874	0.690805
 74.2974	0.690806
 74.3074	0.690806
 74.3174	0.690807
 74.3274	0.690808
 74.3374	0.690808
 74.3474	0.690809
 74.3574	0.69081
 74.3674	0.69081
 74.3774	0.690811
 74.3874	0.690812
 74.3974	0.690813
 74.4074	0.690813
 74.4174	0.690814
 74.4274	0.690815
 74.4374	0.690815
 74.4474	0.690816
 74.4574	0.690817
 74.4674	0.690818
 74.4774	0.690818
 74.4874	0.690819
 74.4974	0.69082
 74.5075	0.69082
 74.5175	0.690821
 74.5275	0.690822
 74.5375	0.690823
 74.5475	0.690823
 74.5575	0.690824
 74.5675	0.690825
 74.5775	0.690825
 74.5875	0.690826
 74.5975	0.690827
 74.6075	0.690828
 74.6175	0.690828
 74.6275	0.690829
 74.6375	0.69083
 74.6475	0.69083
 74.6575	0.690831
 74.6675	0.690832
 74.6775	0.690832
 74.6875	0.690833
 74.6975	0.690834
 74.7075	0.690835
 74.7175	0.690835
 74.7275	0.690836
 74.7375	0.690837
 74.7475	0.690837
 74.7575	0.690838
 74.7675	0.690839
 74.7775	0.69084
 74.7875	0.69084
 74.7975	0.690841
 74.8075	0.690842
 74.8175	0.690842
 74.8275	0.690843
 74.8375	0.690844
 74.8475	0.690845
 74.8575	0.690845
 74.8675	0.690846
 74.8775	0.690847
 74.8875	0.690847
 74.8975	0.690848
 74.9075	0.690849
 74.9175	0.69085
 74.9275	0.69085
 74.9375	0.690851
 74.9475	0.690852
 74.9575	0.690852
 74.9675	0.690853
 74.9775	0.690854
 74.9875	0.690854
 74.9975	0.690855
 75.0075	0.690856
 75.0175	0.690857
 75.0275	0.690857
 75.0375	0.690858
 75.0475	0.690859
 75.0575	0.690859
 75.0675	0.69086
 75.0775	0.690861
 75.0875	0.690862
 75.0975	0.690862
 75.1075	0.690863
 75.1175	0.690864
 75.1275	0.690864
 75.1375	0.690865
 75.1475	0.690866
 75.1575	0.690867
 75.1675	0.690867
 75.1775	0.690868
 75.1875	0.690869
 75.1975	0.690869
 75.2075	0.69087
 75.2175	0.690871
 75.2275	0.690872
 75.2375	0.690872
 75.2475	0.690873
 75.2575	0.690874
 75.2675	0.690874
 75.2775	0.690875
 75.2875	0.690876
 75.2975	0.690876
 75.3075	0.690877
 75.3175	0.690878
 75.3275	0.690879
 75.3375	0.690879
 75.3475	0.69088
 75.3575	0.690881
 75.3675	0.690881
 75.3775	0.690882
 75.3875	0.690883
 75.3975	0.690884
 75.4075	0.690884
 75.4175	0.690885
 75.4275	0.690886
 75.4375	0.690886
 75.4475	0.690887
 75.4575	0.690888
 75.4675	0.690889
 75.4775	0.690889
 75.4875	0.69089
 75.4975	0.690891
 75.5076	0.690891
 75.5176	0.690892
 75.5276	0.690893
 75.5376	0.690894
 75.5476	0.690894
 75.5576	0.690895
 75.5676	0.690896
 75.5776	0.690896
 75.5876	0.690897
 75.5976	0.690898
 75.6076	0.690898
 75.6176	0.690899
 75.6276	0.6909
 75.6376	0.690901
 75.6476	0.690901
 75.6576	0.690902
 75.6676	0.690903
 75.6776	0.690903
 75.6876	0.690904
 75.6976	0.690905
 75.7076	0.690906
 75.7176	0.690906
 75.7276	0.690907
 75.7376	0.690908
 75.7476	0.690908
 75.7576	0.690909
 75.7676	0.69091
 75.7776	0.690911
 75.7876	0.690911
 75.7976	0.690912
 75.8076	0.690913
 75.8176	0.690913
 75.8276	0.690914
 75.8376	0.690915
 75.8476	0.690916
 75.8576	0.690916
 75.8676	0.690917
 75.8776	0.690918
 75.8876	0.690918
 75.8976	0.690919
 75.9076	0.69092
 75.9176	0.690921
 75.9276	0.690921
 75.9376	0.690922
 75.9476	0.690923
 75.9576	0.690923
 75.9676	0.690924
 75.9776	0.690925
 75.9876	0.690925
 75.9976	0.690926
 76.0076	0.690927
 76.0176	0.690928
 76.0276	0.690928
 76.0376	0.690929
 76.0476	0.69093
 76.0576	0.69093
 76.0676	0.690931
 76.0776	0.690932
 76.0876	0.690933
 76.0976	0.690933
 76.1076	0.690934
 76.1176	0.690935
 76.1276	0.690935
 76.1376	0.690936
 76.1476	0.690937
 76.1576	0.690938
 76.1676	0.690938
 76.1776	0.690939
 76.1876	0.69094
 76.1976	0.69094
 76.2076	0.690941
 76.2176	0.690942
 76.2276	0.690943
 76.2376	0.690943
 76.2476	0.690944
 76.2576	0.690945
 76.2676	0.690945
 76.2776	0.690946
 76.2876	0.690947
 76.2976	0.690947
 76.3076	0.690948
 76.3176	0.690949
 76.3276	0.69095
 76.3376	0.69095
 76.3476	0.690951
 76.3576	0.690952
 76.3676	0.690952
 76.3776	0.690953
 76.3876	0.690954
 76.3976	0.690955
 76.4076	0.690955
 76.4176	0.690956
 76.4276	0.690957
 76.4376	0.690957
 76.4476	0.690958
 76.4576	0.690959
 76.4676	0.69096
 76.4776	0.69096
 76.4876	0.690961
 76.4976	0.690962
 76.5077	0.690962
 76.5177	0.690963
 76.5277	0.690964
 76.5377	0.690965
 76.5477	0.690965
 76.5577	0.690966
 76.5677	0.690967
 76.5777	0.690967
 76.5877	0.690968
 76.5977	0.690969
 76.6077	0.690969
 76.6177	0.69097
 76.6277	0.690971
 76.6377	0.690972
 76.6477	0.690972
 76.6577	0.690973
 76.6677	0.690974
 76.6777	0.690974
 76.6877	0.690975
 76.6977	0.690976
 76.7077	0.690977
 76.7177	0.690977
 76.7277	0.690978
 76.7377	0.690979
 76.7477	0.690979
 76.7577	0.69098
 76.7677	0.690981
 76.7777	0.690982
 76.7877	0.690982
 76.7977	0.690983
 76.8077	0.690984
 76.8177	0.690984
 76.8277	0.690985
 76.8377	0.690986
 76.8477	0.690987
 76.8577	0.690987
 76.8677	0.690988
 76.8777	0.690989
 76.8877	0.690989
 76.8977	0.69099
 76.9077	0.690991
 76.9177	0.690991
 76.9277	0.690992
 76.9377	0.690993
 76.9477	0.690994
 76.9577	0.690994
 76.9677	0.690995
 76.9777	0.690996
 76.9877	0.690996
 76.9977	0.690997
 77.0077	0.690998
 77.0177	0.690999
 77.0277	0.690999
 77.0377	0.691
 77.0477	0.691001
 77.0577	0.691001
 77.0677	0.691002
 77.0777	0.691003
 77.0877	0.691004
 77.0977	0.691004
 77.1077	0.691005
 77.1177	0.691006
 77.1277	0.691006
 77.1377	0.691007
 77.1477	0.691008
 77.1577	0.691009
 77.1677	0.691009
 77.1777	0.69101
 77.1877	0.691011
 77.1977	0.691011
 77.2077	0.691012
 77.2177	0.691013
 77.2277	0.691013
 77.2377	0.691014
 77.2477	0.691015
 77.2577	0.691016
 77.2677	0.691016
 77.2777	0.691017
 77.2877	0.691018
 77.2977	0.691018
 77.3077	0.691019
 77.3177	0.69102
 77.3277	0.691021
 77.3377	0.691021
 77.3477	0.691022
 77.3577	0.691023
 77.3677	0.691023
 77.3777	0.691024
 77.3877	0.691025
 77.3977	0.691026
 77.4077	0.691026
 77.4177	0.691027
 77.4277	0.691028
 77.4377	0.691028
 77.4477	0.691029
 77.4577	0.69103
 77.4677	0.691031
 77.4777	0.691031
 77.4877	0.691032
 77.4977	0.691033
 77.5078	0.691033
 77.5178	0.691034
 77.5278	0.691035
 77.5378	0.691035
 77.5478	0.691036
 77.5578	0.691037
 77.5678	0.691038
 77.5778	0.691038
 77.5878	0.691039
 77.5978	0.69104
 77.6078	0.69104
 77.6178	0.691041
 77.6278	0.691042
 77.6378	0.691043
 77.6478	0.691043
 77.6578	0.691044
 77.6678	0.691045
 77.6778	0.691045
 77.6878	0.691046
 77.6978	0.691047
 77.7078	0.691048
 77.7178	0.691048
 77.7278	0.691049
 77.7378	0.69105
 77.7478	0.69105
 77.7578	0.691051
 77.7678	0.691052
 77.7778	0.691053
 77.7878	0.691053
 77.7978	0.691054
 77.8078	0.691055
 77.8178	0.691055
 77.8278	0.691056
 77.8378	0.691057
 77.8478	0.691057
 77.8578	0.691058
 77.8678	0.691059
 77.8778	0.69106
 77.8878	0.69106
 77.8978	0.691061
 77.9078	0.691062
 77.9178	0.691062
 77.9278	0.691063
 77.9378	0.691064
 77.9478	0.691065
 77.9578	0.691065
 77.9678	0.691066
 77.9778	0.691067
 77.9878	0.691067
 77.9978	0.691068
 78.0078	0.691069
 78.0178	0.69107
 78.0278	0.69107
 78.0378	0.691071
 78.0478	0.691072
 78.0578	0.691072
 78.0678	0.691073
 78.0778	0.691074
 78.0878	0.691075
 78.0978	0.691075
 78.1078	0.691076
 78.1178	0.691077
 78.1278	0.691077
 78.1378	0.691078
 78.1478	0.691079
 78.1578	0.691079
 78.1678	0.69108
 78.1778	0.691081
 78.1878	0.691082
 78.1978	0.691082
 78.2078	0.691083
 78.2178	0.691084
 78.2278	0.691084
 78.2378	0.691085
 78.2478	0.691086
 78.2578	0.691087
 78.2678	0.691087
 78.2778	0.691088
 78.2878	0.691089
 78.2978	0.691089
 78.3078	0.69109
 78.3178	0.691091
 78.3278	0.691092
 78.3378	0.691092
 78.3478	0.691093
 78.3578	0.691094
 78.3678	0.691094
 78.3778	0.691095
 78.3878	0.691096
 78.3978	0.691097
 78.4078	0.691097
 78.4178	0.691098
 78.4278	0.691099
 78.4378	0.691099
 78.4478	0.6911
 78.4578	0.691101
 78.4678	0.691101
 78.4778	0.691102
 78.4878	0.691103
 78.4978	0.691104
 78.5079	0.691104
 78.5179	0.691105
 78.5279	0.691106
 78.5379	0.691106
 78.5479	0.691107
 78.5579	0.691108
 78.5679	0.691109
 78.5779	0.691109
 78.5879	0.69111
 78.5979	0.691111
 78.6079	0.691111
 78.6179	0.691112
 78.6279	0.691113
 78.6379	0.691114
 78.6479	0.691114
 78.6579	0.691115
 78.6679	0.691116
 78.6779	0.691116
 78.6879	0.691117
 78.6979	0.691118
 78.7079	0.691119
 78.7179	0.691119
 78.7279	0.69112
 78.7379	0.691121
 78.7479	0.691121
 78.7579	0.691122
 78.7679	0.691123
 78.7779	0.691124
 78.7879	0.691124
 78.7979	0.691125
 78.8079	0.691126
 78.8179	0.691126
 78.8279	0.691127
 78.8379	0.691128
 78.8479	0.691128
 78.8579	0.691129
 78.8679	0.69113
 78.8779	0.691131
 78.8879	0.691131
 78.8979	0.691132
 78.9079	0.691133
 78.9179	0.691133
 78.9279	0.691134
 78.9379	0.691135
 78.9479	0.691136
 78.9579	0.691136
 78.9679	0.691137
 78.9779	0.691138
 78.9879	0.691138
 78.9979	0.691139
 79.0079	0.69114
 79.0179	0.691141
 79.0279	0.691141
 79.0379	0.691142
 79.0479	0.691143
 79.0579	0.691143
 79.0679	0.691144
 79.0779	0.691145
 79.0879	0.691146
 79.0979	0.691146
 79.1079	0.691147
 79.1179	0.691148
 79.1279	0.691148
 79.1379	0.691149
 79.1479	0.69115
 79.1579	0.69115
 79.1679	0.691151
 79.1779	0.691152
 79.1879	0.691153
 79.1979	0.691153
 79.2079	0.691154
 79.2179	0.691155
 79.2279	0.691155
 79.2379	0.691156
 79.2479	0.691157
 79.2579	0.691158
 79.2679	0.691158
 79.2779	0.691159
 79.2879	0.69116
 79.2979	0.69116
 79.3079	0.691161
 79.3179	0.691162
 79.3279	0.691163
 79.3379	0.691163
 79.3479	0.691164
 79.3579	0.691165
 79.3679	0.691165
 79.3779	0.691166
 79.3879	0.691167
 79.3979	0.691168
 79.4079	0.691168
 79.4179	0.691169
 79.4279	0.69117
 79.4379	0.69117
 79.4479	0.691171
 79.4579	0.691172
 79.4679	0.691172
 79.4779	0.691173
 79.4879	0.691174
 79.4979	0.691175
 79.508	0.691175
 79.518	0.691176
 79.528	0.691177
 79.538	0.691177
 79.548	0.691178
 79.558	0.691179
 79.568	0.69118
 79.578	0.69118
 79.588	0.691181
 79.598	0.691182
 79.608	0.691182
 79.618	0.691183
 79.628	0.691184
 79.638	0.691185
 79.648	0.691185
 79.658	0.691186
 79.668	0.691187
 79.678	0.691187
 79.688	0.691188
 79.698	0.691189
 79.708	0.69119
 79.718	0.69119
 79.728	0.691191
 79.738	0.691192
 79.748	0.691192
 79.758	0.691193
 79.768	0.691194
 79.778	0.691194
 79.788	0.691195
 79.798	0.691196
 79.808	0.691197
 79.818	0.691197
 79.828	0.691198
 79.838	0.691199
 79.848	0.691199
 79.858	0.6912
 79.868	0.691201
 79.878	0.691202
 79.888	0.691202
 79.898	0.691203
 79.908	0.691204
 79.918	0.691204
 79.928	0.691205
 79.938	0.691206
 79.948	0.691207
 79.958	0.691207
 79.968	0.691208
 79.978	0.691209
 79.988	0.691209
 79.998	0.69121
 80.008	0.691211
 80.018	0.691212
 80.028	0.691212
 80.038	0.691213
 80.048	0.691214
 80.058	0.691214
 80.068	0.691215
 80.078	0.691216
 80.088	0.691216
 80.098	0.691217
 80.108	0.691218
 80.118	0.691219
 80.128	0.691219
 80.138	0.69122
 80.148	0.691221
 80.158	0.691221
 80.168	0.691222
 80.178	0.691223
 80.188	0.691224
 80.198	0.691224
 80.208	0.691225
 80.218	0.691226
 80.228	0.691226
 80.238	0.691227
 80.248	0.691228
 80.258	0.691229
 80.268	0.691229
 80.278	0.69123
 80.288	0.691231
 80.298	0.691231
 80.308	0.691232
 80.318	0.691233
 80.328	0.691234
 80.338	0.691234
 80.348	0.691235
 80.358	0.691236
 80.368	0.691236
 80.378	0.691237
 80.388	0.691238
 80.398	0.691238
 80.408	0.691239
 80.418	0.69124
 80.428	0.691241
 80.438	0.691241
 80.448	0.691242
 80.458	0.691243
 80.468	0.691243
 80.478	0.691244
 80.488	0.691245
 80.498	0.691246
 80.5081	0.691246
 80.5181	0.691247
 80.5281	0.691248
 80.5381	0.691248
 80.5481	0.691249
 80.5581	0.69125
 80.5681	0.691251
 80.5781	0.691251
 80.5881	0.691252
 80.5981	0.691253
 80.6081	0.691253
 80.6181	0.691254
 80.6281	0.691255
 80.6381	0.691256
 80.6481	0.691256
 80.6581	0.691257
 80.6681	0.691258
 80.6781	0.691258
 80.6881	0.691259
 80.6981	0.69126
 80.7081	0.69126
 80.7181	0.691261
 80.7281	0.691262
 80.7381	0.691263
 80.7481	0.691263
 80.7581	0.691264
 80.7681	0.691265
 80.7781	0.691265
 80.7881	0.691266
 80.7981	0.691267
 80.8081	0.691268
 80.8181	0.691268
 80.8281	0.691269
 80.8381	0.69127
 80.8481	0.69127
 80.8581	0.691271
 80.8681	0.691272
 80.8781	0.691273
 80.8881	0.691273
 80.8981	0.691274
 80.9081	0.691275
 80.9181	0.691275
 80.9281	0.691276
 80.9381	0.691277
 80.9481	0.691278
 80.9581	0.691278
 80.9681	0.691279
 80.9781	0.69128
 80.9881	0.69128
 80.9981	0.691281
 81.0081	0.691282
 81.0181	0.691282
 81.0281	0.691283
 81.0381	0.691284
 81.0481	0.691285
 81.0581	0.691285
 81.0681	0.691286
 81.0781	0.691287
 81.0881	0.691287
 81.0981	0.691288
 81.1081	0.691289
 81.1181	0.69129
 81.1281	0.69129
 81.1381	0.691291
 81.1481	0.691292
 81.1581	0.691292
 81.1681	0.691293
 81.1781	0.691294
 81.1881	0.691295
 81.1981	0.691295
 81.2081	0.691296
 81.2181	0.691297
 81.2281	0.691297
 81.2381	0.691298
 81.2481	0.691299
 81.2581	0.6913
 81.2681	0.6913
 81.2781	0.691301
 81.2881	0.691302
 81.2981	0.691302
 81.3081	0.691303
 81.3181	0.691304
 81.3281	0.691305
 81.3381	0.691305
 81.3481	0.691306
 81.3581	0.691307
 81.3681	0.691307
 81.3781	0.691308
 81.3881	0.691309
 81.3981	0.691309
 81.4081	0.69131
 81.4181	0.691311
 81.4281	0.691312
 81.4381	0.691312
 81.4481	0.691313
 81.4581	0.691314
 81.4681	0.691314
 81.4781	0.691315
 81.4881	0.691316
 81.4981	0.691317
 81.5082	0.691317
 81.5182	0.691318
 81.5282	0.691319
 81.5382	0.691319
 81.5482	0.69132
 81.5582	0.691321
 81.5682	0.691322
 81.5782	0.691322
 81.5882	0.691323
 81.5982	0.691324
 81.6082	0.691324
 81.6182	0.691325
 81.6282	0.691326
 81.6382	0.691327
 81.6482	0.691327
 81.6582	0.691328
 81.6682	0.691329
 81.6782	0.691329
 81.6882	0.69133
 81.6982	0.691331
 81.7082	0.691331
 81.7182	0.691332
 81.7282	0.691333
 81.7382	0.691334
 81.7482	0.691334
 81.7582	0.691335
 81.7682	0.691336
 81.7782	0.691336
 81.7882	0.691337
 81.7982	0.691338
 81.8082	0.691339
 81.8182	0.691339
 81.8282	0.69134
 81.8382	0.691341
 81.8482	0.691341
 81.8582	0.691342
 81.8682	0.691343
 81.8782	0.691344
 81.8882	0.691344
 81.8982	0.691345
 81.9082	0.691346
 81.9182	0.691346
 81.9282	0.691347
 81.9382	0.691348
 81.9482	0.691349
 81.9582	0.691349
 81.9682	0.69135
 81.9782	0.691351
 81.9882	0.691351
 81.9982	0.691352
 82.0082	0.691353
 82.0182	0.691353
 82.0282	0.691354
 82.0382	0.691355
 82.0482	0.691356
 82.0582	0.691356
 82.0682	0.691357
 82.0782	0.691358
 82.0882	0.691358
 82.0982	0.691359
 82.1082	0.69136
 82.1182	0.691361
 82.1282	0.691361
 82.1382	0.691362
 82.1482	0.691363
 82.1582	0.691363
 82.1682	0.691364
 82.1782	0.691365
 82.1882	0.691366
 82.1982	0.691366
 82.2082	0.691367
 82.2182	0.691368
 82.2282	0.691368
 82.2382	0.691369
 82.2482	0.69137
 82.2582	0.691371
 82.2682	0.691371
 82.2782	0.691372
 82.2882	0.691373
 82.2982	0.691373
 82.3082	0.691374
 82.3182	0.691375
 82.3282	0.691375
 82.3382	0.691376
 82.3482	0.691377
 82.3582	0.691378
 82.3682	0.691378
 82.3782	0.691379
 82.3882	0.69138
 82.3982	0.69138
 82.4082	0.691381
 82.4182	0.691382
 82.4282	0.691383
 82.4382	0.691383
 82.4482	0.691384
 82.4582	0.691385
 82.4682	0.691385
 82.4782	0.691386
 82.4882	0.691387
 82.4982	0.691388
 82.5083	0.691388
 82.5183	0.691389
 82.5283	0.69139
 82.5383	0.69139
 82.5483	0.691391
 82.5583	0.691392
 82.5683	0.691393
 82.5783	0.691393
 82.5883	0.691394
 82.5983	0.691395
 82.6083	0.691395
 82.6183	0.691396
 82.6283	0.691397
 82.6383	0.691397
 82.6483	0.691398
 82.6583	0.691399
 82.6683	0.6914
 82.6783	0.6914
 82.6883	0.691401
 82.6983	0.691402
 82.7083	0.691402
 82.7183	0.691403
 82.7283	0.691404
 82.7383	0.691405
 82.7483	0.691405
 82.7583	0.691406
 82.7683	0.691407
 82.7783	0.691407
 82.7883	0.691408
 82.7983	0.691409
 82.8083	0.69141
 82.8183	0.69141
 82.8283	0.691411
 82.8383	0.691412
 82.8483	0.691412
 82.8583	0.691413
 82.8683	0.691414
 82.8783	0.691415
 82.8883	0.691415
 82.8983	0.691416
 82.9083	0.691417
 82.9183	0.691417
 82.9283	0.691418
 82.9383	0.691419
 82.9483	0.691419
 82.9583	0.69142
 82.9683	0.691421
 82.9783	0.691422
 82.9883	0.691422
 82.9983	0.691423
 83.0083	0.691424
 83.0183	0.691424
 83.0283	0.691425
 83.0383	0.691426
 83.0483	0.691427
 83.0583	0.691427
 83.0683	0.691428
 83.0783	0.691429
 83.0883	0.691429
 83.0983	0.69143
 83.1083	0.691431
 83.1183	0.691432
 83.1283	0.691432
 83.1383	0.691433
 83.1483	0.691434
 83.1583	0.691434
 83.1683	0.691435
 83.1783	0.691436
 83.1883	0.691437
 83.1983	0.691437
 83.2083	0.691438
 83.2183	0.691439
 83.2283	0.691439
 83.2383	0.69144
 83.2483	0.691441
 83.2583	0.691441
 83.2683	0.691442
 83.2783	0.691443
 83.2883	0.691444
 83.2983	0.691444
 83.3083	0.691445
 83.3183	0.691446
 83.3283	0.691446
 83.3383	0.691447
 83.3483	0.691448
 83.3583	0.691449
 83.3683	0.691449
 83.3783	0.69145
 83.3883	0.691451
 83.3983	0.691451
 83.4083	0.691452
 83.4183	0.691453
 83.4283	0.691454
 83.4383	0.691454
 83.4483	0.691455
 83.4583	0.691456
 83.4683	0.691456
 83.4783	0.691457
 83.4883	0.691458
 83.4983	0.691459
 83.5084	0.691459
 83.5184	0.69146
 83.5284	0.691461
 83.5384	0.691461
 83.5484	0.691462
 83.5584	0.691463
 83.5684	0.691463
 83.5784	0.691464
 83.5884	0.691465
 83.5984	0.691466
 83.6084	0.691466
 83.6184	0.691467
 83.6284	0.691468
 83.6384	0.691468
 83.6484	0.691469
 83.6584	0.69147
 83.6684	0.691471
 83.6784	0.691471
 83.6884	0.691472
 83.6984	0.691473
 83.7084	0.691473
 83.7184	0.691474
 83.7284	0.691475
 83.7384	0.691476
 83.7484	0.691476
 83.7584	0.691477
 83.7684	0.691478
 83.7784	0.691478
 83.7884	0.691479
 83.7984	0.69148
 83.8084	0.691481
 83.8184	0.691481
 83.8284	0.691482
 83.8384	0.691483
 83.8484	0.691483
 83.8584	0.691484
 83.8684	0.691485
 83.8784	0.691486
 83.8884	0.691486
 83.8984	0.691487
 83.9084	0.691488
 83.9184	0.691488
 83.9284	0.691489
 83.9384	0.69149
 83.9484	0.69149
 83.9584	0.691491
 83.9684	0.691492
 83.9784	0.691493
 83.9884	0.691493
 83.9984	0.691494
 84.0084	0.691495
 84.0184	0.691495
 84.0284	0.691496
 84.0384	0.691497
 84.0484	0.691498
 84.0584	0.691498
 84.0684	0.691499
 84.0784	0.6915
 84.0884	0.6915
 84.0984	0.691501
 84.1084	0.691502
 84.1184	0.691503
 84.1284	0.691503
 84.1384	0.691504
 84.1484	0.691505
 84.1584	0.691505
 84.1684	0.691506
 84.1784	0.691507
 84.1884	0.691508
 84.1984	0.691508
 84.2084	0.691509
 84.2184	0.69151
 84.2284	0.69151
 84.2384	0.691511
 84.2484	0.691512
 84.2584	0.691512
 84.2684	0.691513
 84.2784	0.691514
 84.2884	0.691515
 84.2984	0.691515
 84.3084	0.691516
 84.3184	0.691517
 84.3284	0.691517
 84.3384	0.691518
 84.3484	0.691519
 84.3584	0.69152
 84.3684	0.69152
 84.3784	0.691521
 84.3884	0.691522
 84.3984	0.691522
 84.4084	0.691523
 84.4184	0.691524
 84.4284	0.691525
 84.4384	0.691525
 84.4484	0.691526
 84.4584	0.691527
 84.4684	0.691527
 84.4784	0.691528
 84.4884	0.691529
 84.4984	0.69153
 84.5085	0.69153
 84.5185	0.691531
 84.5285	0.691532
 84.5385	0.691532
 84.5485	0.691533
 84.5585	0.691534
 84.5685	0.691534
 84.5785	0.691535
 84.5885	0.691536
 84.5985	0.691537
 84.6085	0.691537
 84.6185	0.691538
 84.6285	0.691539
 84.6385	0.691539
 84.6485	0.69154
 84.6585	0.691541
 84.6685	0.691542
 84.6785	0.691542
 84.6885	0.691543
 84.6985	0.691544
 84.7085	0.691544
 84.7185	0.691545
 84.7285	0.691546
 84.7385	0.691547
 84.7485	0.691547
 84.7585	0.691548
 84.7685	0.691549
 84.7785	0.691549
 84.7885	0.69155
 84.7985	0.691551
 84.8085	0.691552
 84.8185	0.691552
 84.8285	0.691553
 84.8385	0.691554
 84.8485	0.691554
 84.8585	0.691555
 84.8685	0.691556
 84.8785	0.691556
 84.8885	0.691557
 84.8985	0.691558
 84.9085	0.691559
 84.9185	0.691559
 84.9285	0.69156
 84.9385	0.691561
 84.9485	0.691561
 84.9585	0.691562
 84.9685	0.691563
 84.9785	0.691564
 84.9885	0.691564
 84.9985	0.691565
 85.0085	0.691566
 85.0185	0.691566
 85.0285	0.691567
 85.0385	0.691568
 85.0485	0.691569
 85.0585	0.691569
 85.0685	0.69157
 85.0785	0.691571
 85.0885	0.691571
 85.0985	0.691572
 85.1085	0.691573
 85.1185	0.691574
 85.1285	0.691574
 85.1385	0.691575
 85.1485	0.691576
 85.1585	0.691576
 85.1685	0.691577
 85.1785	0.691578
 85.1885	0.691578
 85.1985	0.691579
 85.2085	0.69158
 85.2185	0.691581
 85.2285	0.691581
 85.2385	0.691582
 85.2485	0.691583
 85.2585	0.691583
 85.2685	0.691584
 85.2785	0.691585
 85.2885	0.691586
 85.2985	0.691586
 85.3085	0.691587
 85.3185	0.691588
 85.3285	0.691588
 85.3385	0.691589
 85.3485	0.69159
 85.3585	0.691591
 85.3685	0.691591
 85.3785	0.691592
 85.3885	0.691593
 85.3985	0.691593
 85.4085	0.691594
 85.4185	0.691595
 85.4285	0.691596
 85.4385	0.691596
 85.4485	0.691597
 85.4585	0.691598
 85.4685	0.691598
 85.4785	0.691599
 85.4885	0.6916
 85.4985	0.6916
 85.5086	0.691601
 85.5186	0.691602
 85.5286	0.691603
 85.5386	0.691603
 85.5486	0.691604
 85.5586	0.691605
 85.5686	0.691605
 85.5786	0.691606
 85.5886	0.691607
 85.5986	0.691608
 85.6086	0.691608
 85.6186	0.691609
 85.6286	0.69161
 85.6386	0.69161
 85.6486	0.691611
 85.6586	0.691612
 85.6686	0.691613
 85.6786	0.691613
 85.6886	0.691614
 85.6986	0.691615
 85.7086	0.691615
 85.7186	0.691616
 85.7286	0.691617
 85.7386	0.691618
 85.7486	0.691618
 85.7586	0.691619
 85.7686	0.69162
 85.7786	0.69162
 85.7886	0.691621
 85.7986	0.691622
 85.8086	0.691622
 85.8186	0.691623
 85.8286	0.691624
 85.8386	0.691625
 85.8486	0.691625
 85.8586	0.691626
 85.8686	0.691627
 85.8786	0.691627
 85.8886	0.691628
 85.8986	0.691629
 85.9086	0.69163
 85.9186	0.69163
 85.9286	0.691631
 85.9386	0.691632
 85.9486	0.691632
 85.9586	0.691633
 85.9686	0.691634
 85.9786	0.691635
 85.9886	0.691635
 85.9986	0.691636
 86.0086	0.691637
 86.0186	0.691637
 86.0286	0.691638
 86.0386	0.691639
 86.0486	0.69164
 86.0586	0.69164
 86.0686	0.691641
 86.0786	0.691642
 86.0886	0.691642
 86.0986	0.691643
 86.1086	0.691644
 86.1186	0.691644
 86.1286	0.691645
 86.1386	0.691646
 86.1486	0.691647
 86.1586	0.691647
 86.1686	0.691648
 86.1786	0.691649
 86.1886	0.691649
 86.1986	0.69165
 86.2086	0.691651
 86.2186	0.691652
 86.2286	0.691652
 86.2386	0.691653
 86.2486	0.691654
 86.2586	0.691654
 86.2686	0.691655
 86.2786	0.691656
 86.2886	0.691657
 86.2986	0.691657
 86.3086	0.691658
 86.3186	0.691659
 86.3286	0.691659
 86.3386	0.69166
 86.3486	0.691661
 86.3586	0.691662
 86.3686	0.691662
 86.3786	0.691663
 86.3886	0.691664
 86.3986	0.691664
 86.4086	0.691665
 86.4186	0.691666
 86.4286	0.691666
 86.4386	0.691667
 86.4486	0.691668
 86.4586	0.691669
 86.4686	0.691669
 86.4786	0.69167
 86.4886	0.691671
 86.4986	0.691671
 86.5087	0.691672
 86.5187	0.691673
 86.5287	0.691674
 86.5387	0.691674
 86.5487	0.691675
 86.5587	0.691676
 86.5687	0.691676
 86.5787	0.691677
 86.5887	0.691678
 86.5987	0.691679
 86.6087	0.691679
 86.6187	0.69168
 86.6287	0.691681
 86.6387	0.691681
 86.6487	0.691682
 86.6587	0.691683
 86.6687	0.691684
 86.6787	0.691684
 86.6887	0.691685
 86.6987	0.691686
 86.7087	0.691686
 86.7187	0.691687
 86.7287	0.691688
 86.7387	0.691689
 86.7487	0.691689
 86.7587	0.69169
 86.7687	0.691691
 86.7787	0.691691
 86.7887	0.691692
 86.7987	0.691693
 86.8087	0.691693
 86.8187	0.691694
 86.8287	0.691695
 86.8387	0.691696
 86.8487	0.691696
 86.8587	0.691697
 86.8687	0.691698
 86.8787	0.691698
 86.8887	0.691699
 86.8987	0.6917
 86.9087	0.691701
 86.9187	0.691701
 86.9287	0.691702
 86.9387	0.691703
 86.9487	0.691703
 86.9587	0.691704
 86.9687	0.691705
 86.9787	0.691706
 86.9887	0.691706
 86.9987	0.691707
 87.0087	0.691708
 87.0187	0.691708
 87.0287	0.691709
 87.0387	0.69171
 87.0487	0.691711
 87.0587	0.691711
 87.0687	0.691712
 87.0787	0.691713
 87.0887	0.691713
 87.0987	0.691714
 87.1087	0.691715
 87.1187	0.691715
 87.1287	0.691716
 87.1387	0.691717
 87.1487	0.691718
 87.1587	0.691718
 87.1687	0.691719
 87.1787	0.69172
 87.1887	0.69172
 87.1987	0.691721
 87.2087	0.691722
 87.2187	0.691723
 87.2287	0.691723
 87.2387	0.691724
 87.2487	0.691725
 87.2587	0.691725
 87.2687	0.691726
 87.2787	0.691727
 87.2887	0.691728
 87.2987	0.691728
 87.3087	0.691729
 87.3187	0.69173
 87.3287	0.69173
 87.3387	0.691731
 87.3487	0.691732
 87.3587	0.691733
 87.3687	0.691733
 87.3787	0.691734
 87.3887	0.691735
 87.3987	0.691735
 87.4087	0.691736
 87.4187	0.691737
 87.4287	0.691737
 87.4387	0.691738
 87.4487	0.691739
 87.4587	0.69174
 87.4687	0.69174
 87.4787	0.691741
 87.4887	0.691742
 87.4987	0.691742
 87.5088	0.691743
 87.5188	0.691744
 87.5288	0.691745
 87.5388	0.691745
 87.5488	0.691746
 87.5588	0.691747
 87.5688	0.691747
 87.5788	0.691748
 87.5888	0.691749
 87.5988	0.69175
 87.6088	0.69175
 87.6188	0.691751
 87.6288	0.691752
 87.6388	0.691752
 87.6488	0.691753
 87.6588	0.691754
 87.6688	0.691755
 87.6788	0.691755
 87.6888	0.691756
 87.6988	0.691757
 87.7088	0.691757
 87.7188	0.691758
 87.7288	0.691759
 87.7388	0.691759
 87.7488	0.69176
 87.7588	0.691761
 87.7688	0.691762
 87.7788	0.691762
 87.7888	0.691763
 87.7988	0.691764
 87.8088	0.691764
 87.8188	0.691765
 87.8288	0.691766
 87.8388	0.691767
 87.8488	0.691767
 87.8588	0.691768
 87.8688	0.691769
 87.8788	0.691769
 87.8888	0.69177
 87.8988	0.691771
 87.9088	0.691772
 87.9188	0.691772
 87.9288	0.691773
 87.9388	0.691774
 87.9488	0.691774
 87.9588	0.691775
 87.9688	0.691776
 87.9788	0.691777
 87.9888	0.691777
 87.9988	0.691778
 88.0088	0.691779
 88.0188	0.691779
 88.0288	0.69178
 88.0388	0.691781
 88.0488	0.691781
 88.0588	0.691782
 88.0688	0.691783
 88.0788	0.691784
 88.0888	0.691784
 88.0988	0.691785
 88.1088	0.691786
 88.1188	0.691786
 88.1288	0.691787
 88.1388	0.691788
 88.1488	0.691789
 88.1588	0.691789
 88.1688	0.69179
 88.1788	0.691791
 88.1888	0.691791
 88.1988	0.691792
 88.2088	0.691793
 88.2188	0.691794
 88.2288	0.691794
 88.2388	0.691795
 88.2488	0.691796
 88.2588	0.691796
 88.2688	0.691797
 88.2788	0.691798
 88.2888	0.691799
 88.2988	0.691799
 88.3088	0.6918
 88.3188	0.691801
 88.3288	0.691801
 88.3388	0.691802
 88.3488	0.691803
 88.3588	0.691803
 88.3688	0.691804
 88.3788	0.691805
 88.3888	0.691806
 88.3988	0.691806
 88.4088	0.691807
 88.4188	0.691808
 88.4288	0.691808
 88.4388	0.691809
 88.4488	0.69181
 88.4588	0.691811
 88.4688	0.691811
 88.4788	0.691812
 88.4888	0.691813
 88.4988	0.691813
 88.5089	0.691814
 88.5189	0.691815
 88.5289	0.691816
 88.5389	0.691816
 88.5489	0.691817
 88.5589	0.691818
 88.5689	0.691818
 88.5789	0.691819
 88.5889	0.69182
 88.5989	0.691821
 88.6089	0.691821
 88.6189	0.691822
 88.6289	0.691823
 88.6389	0.691823
 88.6489	0.691824
 88.6589	0.691825
 88.6689	0.691825
 88.6789	0.691826
 88.6889	0.691827
 88.6989	0.691828
 88.7089	0.691828
 88.7189	0.691829
 88.7289	0.69183
 88.7389	0.69183
 88.7489	0.691831
 88.7589	0.691832
 88.7689	0.691833
 88.7789	0.691833
 88.7889	0.691834
 88.7989	0.691835
 88.8089	0.691835
 88.8189	0.691836
 88.8289	0.691837
 88.8389	0.691838
 88.8489	0.691838
 88.8589	0.691839
 88.8689	0.69184
 88.8789	0.69184
 88.8889	0.691841
 88.8989	0.691842
 88.9089	0.691843
 88.9189	0.691843
 88.9289	0.691844
 88.9389	0.691845
 88.9489	0.691845
 88.9589	0.691846
 88.9689	0.691847
 88.9789	0.691847
 88.9889	0.691848
 88.9989	0.691849
 89.0089	0.69185
 89.0189	0.69185
 89.0289	0.691851
 89.0389	0.691852
 89.0489	0.691852
 89.0589	0.691853
 89.0689	0.691854
 89.0789	0.691855
 89.0889	0.691855
 89.0989	0.691856
 89.1089	0.691857
 89.1189	0.691857
 89.1289	0.691858
 89.1389	0.691859
 89.1489	0.69186
 89.1589	0.69186
 89.1689	0.691861
 89.1789	0.691862
 89.1889	0.691862
 89.1989	0.691863
 89.2089	0.691864
 89.2189	0.691865
 89.2289	0.691865
 89.2389	0.691866
 89.2489	0.691867
 89.2589	0.691867
 89.2689	0.691868
 89.2789	0.691869
 89.2889	0.69187
 89.2989	0.69187
 89.3089	0.691871
 89.3189	0.691872
 89.3289	0.691872
 89.3389	0.691873
 89.3489	0.691874
 89.3589	0.691874
 89.3689	0.691875
 89.3789	0.691876
 89.3889	0.691877
 89.3989	0.691877
 89.4089	0.691878
 89.4189	0.691879
 89.4289	0.691879
 89.4389	0.69188
 89.4489	0.691881
 89.4589	0.691882
 89.4689	0.691882
 89.4789	0.691883
 89.4889	0.691884
 89.4989	0.691884
 89.509	0.691885
 89.519	0.691886
 89.529	0.691887
 89.539	0.691887
 89.549	0.691888
 89.559	0.691889
 89.569	0.691889
 89.579	0.69189
 89.589	0.691891
 89.599	0.691892
 89.609	0.691892
 89.619	0.691893
 89.629	0.691894
 89.639	0.691894
 89.649	0.691895
 89.659	0.691896
 89.669	0.691896
 89.679	0.691897
 89.689	0.691898
 89.699	0.691899
 89.709	0.691899
 89.719	0.6919
 89.729	0.691901
 89.739	0.691901
 89.749	0.691902
 89.759	0.691903
 89.769	0.691904
 89.779	0.691904
 89.789	0.691905
 89.799	0.691906
 89.809	0.691906
 89.819	0.691907
 89.829	0.691908
 89.839	0.691909
 89.849	0.691909
 89.859	0.69191
 89.869	0.691911
 89.879	0.691911
 89.889	0.691912
 89.899	0.691913
 89.909	0.691914
 89.919	0.691914
 89.929	0.691915
 89.939	0.691916
 89.949	0.691916
 89.959	0.691917
 89.969	0.691918
 89.979	0.691918
 89.989	0.691919
 89.999	0.69192
 90.009	0.691921
 90.019	0.691921
 90.029	0.691922
 90.039	0.691923
 90.049	0.691923
 90.059	0.691924
 90.069	0.691925
 90.079	0.691926
 90.089	0.691926
 90.099	0.691927
 90.109	0.691928
 90.119	0.691928
 90.129	0.691929
 90.139	0.69193
 90.149	0.691931
 90.159	0.691931
 90.169	0.691932
 90.179	0.691933
 90.189	0.691933
 90.199	0.691934
 90.209	0.691935
 90.219	0.691936
 90.229	0.691936
 90.239	0.691937
 90.249	0.691938
 90.259	0.691938
 90.269	0.691939
 90.279	0.69194
 90.289	0.69194
 90.299	0.691941
 90.309	0.691942
 90.319	0.691943
 90.329	0.691943
 90.339	0.691944
 90.349	0.691945
 90.359	0.691945
 90.369	0.691946
 90.379	0.691947
 90.389	0.691948
 90.399	0.691948
 90.409	0.691949
 90.419	0.69195
 90.429	0.69195
 90.439	0.691951
 90.449	0.691952
 90.459	0.691953
 90.469	0.691953
 90.479	0.691954
 90.489	0.691955
 90.499	0.691955
 90.5091	0.691956
 90.5191	0.691957
 90.5291	0.691958
 90.5391	0.691958
 90.5491	0.691959
 90.5591	0.69196
 90.5691	0.69196
 90.5791	0.691961
 90.5891	0.691962
 90.5991	0.691962
 90.6091	0.691963
 90.6191	0.691964
 90.6291	0.691965
 90.6391	0.691965
 90.6491	0.691966
 90.6591	0.691967
 90.6691	0.691967
 90.6791	0.691968
 90.6891	0.691969
 90.6991	0.69197
 90.7091	0.69197
 90.7191	0.691971
 90.7291	0.691972
 90.7391	0.691972
 90.7491	0.691973
 90.7591	0.691974
 90.7691	0.691975
 90.7791	0.691975
 90.7891	0.691976
 90.7991	0.691977
 90.8091	0.691977
 90.8191	0.691978
 90.8291	0.691979
 90.8391	0.69198
 90.8491	0.69198
 90.8591	0.691981
 90.8691	0.691982
 90.8791	0.691982
 90.8891	0.691983
 90.8991	0.691984
 90.9091	0.691984
 90.9191	0.691985
 90.9291	0.691986
 90.9391	0.691987
 90.9491	0.691987
 90.9591	0.691988
 90.9691	0.691989
 90.9791	0.691989
 90.9891	0.69199
 90.9991	0.691991
 91.0091	0.691992
 91.0191	0.691992
 91.0291	0.691993
 91.0391	0.691994
 91.0491	0.691994
 91.0591	0.691995
 91.0691	0.691996
 91.0791	0.691997
 91.0891	0.691997
 91.0991	0.691998
 91.1091	0.691999
 91.1191	0.691999
 91.1291	0.692
 91.1391	0.692001
 91.1491	0.692002
 91.1591	0.692002
 91.1691	0.692003
 91.1791	0.692004
 91.1891	0.692004
 91.1991	0.692005
 91.2091	0.692006
 91.2191	0.692006
 91.2291	0.692007
 91.2391	0.692008
 91.2491	0.692009
 91.2591	0.692009
 91.2691	0.69201
 91.2791	0.692011
 91.2891	0.692011
 91.2991	0.692012
 91.3091	0.692013
 91.3191	0.692014
 91.3291	0.692014
 91.3391	0.692015
 91.3491	0.692016
 91.3591	0.692016
 91.3691	0.692017
 91.3791	0.692018
 91.3891	0.692019
 91.3991	0.692019
 91.4091	0.69202
 91.4191	0.692021
 91.4291	0.692021
 91.4391	0.692022
 91.4491	0.692023
 91.4591	0.692024
 91.4691	0.692024
 91.4791	0.692025
 91.4891	0.692026
 91.4991	0.692026
 91.5092	0.692027
 91.5192	0.692028
 91.5292	0.692028
 91.5392	0.692029
 91.5492	0.69203
 91.5592	0.692031
 91.5692	0.692031
 91.5792	0.692032
 91.5892	0.692033
 91.5992	0.692033
 91.6092	0.692034
 91.6192	0.692035
 91.6292	0.692036
 91.6392	0.692036
 91.6492	0.692037
 91.6592	0.692038
 91.6692	0.692038
 91.6792	0.692039
 91.6892	0.69204
 91.6992	0.692041
 91.7092	0.692041
 91.7192	0.692042
 91.7292	0.692043
 91.7392	0.692043
 91.7492	0.692044
 91.7592	0.692045
 91.7692	0.692046
 91.7792	0.692046
 91.7892	0.692047
 91.7992	0.692048
 91.8092	0.692048
 91.8192	0.692049
 91.8292	0.69205
 91.8392	0.692051
 91.8492	0.692051
 91.8592	0.692052
 91.8692	0.692053
 91.8792	0.692053
 91.8892	0.692054
 91.8992	0.692055
 91.9092	0.692055
 91.9192	0.692056
 91.9292	0.692057
 91.9392	0.692058
 91.9492	0.692058
 91.9592	0.692059
 91.9692	0.69206
 91.9792	0.69206
 91.9892	0.692061
 91.9992	0.692062
 92.0092	0.692063
 92.0192	0.692063
 92.0292	0.692064
 92.0392	0.692065
 92.0492	0.692065
 92.0592	0.692066
 92.0692	0.692067
 92.0792	0.692068
 92.0892	0.692068
 92.0992	0.692069
 92.1092	0.69207
 92.1192	0.69207
 92.1292	0.692071
 92.1392	0.692072
 92.1492	0.692073
 92.1592	0.692073
 92.1692	0.692074
 92.1792	0.692075
 92.1892	0.692075
 92.1992	0.692076
 92.2092	0.692077
 92.2192	0.692077
 92.2292	0.692078
 92.2392	0.692079
 92.2492	0.69208
 92.2592	0.69208
 92.2692	0.692081
 92.2792	0.692082
 92.2892	0.692082
 92.2992	0.692083
 92.3092	0.692084
 92.3192	0.692085
 92.3292	0.692085
 92.3392	0.692086
 92.3492	0.692087
 92.3592	0.692087
 92.3692	0.692088
 92.3792	0.692089
 92.3892	0.69209
 92.3992	0.69209
 92.4092	0.692091
 92.4192	0.692092
 92.4292	0.692092
 92.4392	0.692093
 92.4492	0.692094
 92.4592	0.692095
 92.4692	0.692095
 92.4792	0.692096
 92.4892	0.692097
 92.4992	0.692097
 92.5093	0.692098
 92.5193	0.692099
 92.5293	0.692099
 92.5393	0.6921
 92.5493	0.692101
 92.5593	0.692102
 92.5693	0.692102
 92.5793	0.692103
 92.5893	0.692104
 92.5993	0.692104
 92.6093	0.692105
 92.6193	0.692106
 92.6293	0.692107
 92.6393	0.692107
 92.6493	0.692108
 92.6593	0.692109
 92.6693	0.692109
 92.6793	0.69211
 92.6893	0.692111
 92.6993	0.692112
 92.7093	0.692112
 92.7193	0.692113
 92.7293	0.692114
 92.7393	0.692114
 92.7493	0.692115
 92.7593	0.692116
 92.7693	0.692117
 92.7793	0.692117
 92.7893	0.692118
 92.7993	0.692119
 92.8093	0.692119
 92.8193	0.69212
 92.8293	0.692121
 92.8393	0.692121
 92.8493	0.692122
 92.8593	0.692123
 92.8693	0.692124
 92.8793	0.692124
 92.8893	0.692125
 92.8993	0.692126
 92.9093	0.692126
 92.9193	0.692127
 92.9293	0.692128
 92.9393	0.692129
 92.9493	0.692129
 92.9593	0.69213
 92.9693	0.692131
 92.9793	0.692131
 92.9893	0.692132
 92.9993	0.692133
 93.0093	0.692134
 93.0193	0.692134
 93.0293	0.692135
 93.0393	0.692136
 93.0493	0.692136
 93.0593	0.692137
 93.0693	0.692138
 93.0793	0.692139
 93.0893	0.692139
 93.0993	0.69214
 93.1093	0.692141
 93.1193	0.692141
 93.1293	0.692142
 93.1393	0.692143
 93.1493	0.692143
 93.1593	0.692144
 93.1693	0.692145
 93.1793	0.692146
 93.1893	0.692146
 93.1993	0.692147
 93.2093	0.692148
 93.2193	0.692148
 93.2293	0.692149
 93.2393	0.69215
 93.2493	0.692151
 93.2593	0.692151
 93.2693	0.692152
 93.2793	0.692153
 93.2893	0.692153
 93.2993	0.692154
 93.3093	0.692155
 93.3193	0.692156
 93.3293	0.692156
 93.3393	0.692157
 93.3493	0.692158
 93.3593	0.692158
 93.3693	0.692159
 93.3793	0.69216
 93.3893	0.692161
 93.3993	0.692161
 93.4093	0.692162
 93.4193	0.692163
 93.4293	0.692163
 93.4393	0.692164
 93.4493	0.692165
 93.4593	0.692165
 93.4693	0.692166
 93.4793	0.692167
 93.4893	0.692168
 93.4993	0.692168
 93.5094	0.692169
 93.5194	0.69217
 93.5294	0.69217
 93.5394	0.692171
 93.5494	0.692172
 93.5594	0.692173
 93.5694	0.692173
 93.5794	0.692174
 93.5894	0.692175
 93.5994	0.692175
 93.6094	0.692176
 93.6194	0.692177
 93.6294	0.692178
 93.6394	0.692178
 93.6494	0.692179
 93.6594	0.69218
 93.6694	0.69218
 93.6794	0.692181
 93.6894	0.692182
 93.6994	0.692183
 93.7094	0.692183
 93.7194	0.692184
 93.7294	0.692185
 93.7394	0.692185
 93.7494	0.692186
 93.7594	0.692187
 93.7694	0.692187
 93.7794	0.692188
 93.7894	0.692189
 93.7994	0.69219
 93.8094	0.69219
 93.8194	0.692191
 93.8294	0.692192
 93.8394	0.692192
 93.8494	0.692193
 93.8594	0.692194
 93.8694	0.692195
 93.8794	0.692195
 93.8894	0.692196
 93.8994	0.692197
 93.9094	0.692197
 93.9194	0.692198
 93.9294	0.692199
 93.9394	0.6922
 93.9494	0.6922
 93.9594	0.692201
 93.9694	0.692202
 93.9794	0.692202
 93.9894	0.692203
 93.9994	0.692204
 94.0094	0.692205
 94.0194	0.692205
 94.0294	0.692206
 94.0394	0.692207
 94.0494	0.692207
 94.0594	0.692208
 94.0694	0.692209
 94.0794	0.692209
 94.0894	0.69221
 94.0994	0.692211
 94.1094	0.692212
 94.1194	0.692212
 94.1294	0.692213
 94.1394	0.692214
 94.1494	0.692214
 94.1594	0.692215
 94.1694	0.692216
 94.1794	0.692217
 94.1894	0.692217
 94.1994	0.692218
 94.2094	0.692219
 94.2194	0.692219
 94.2294	0.69222
 94.2394	0.692221
 94.2494	0.692222
 94.2594	0.692222
 94.2694	0.692223
 94.2794	0.692224
 94.2894	0.692224
 94.2994	0.692225
 94.3094	0.692226
 94.3194	0.692227
 94.3294	0.692227
 94.3394	0.692228
 94.3494	0.692229
 94.3594	0.692229
 94.3694	0.69223
 94.3794	0.692231
 94.3894	0.692231
 94.3994	0.692232
 94.4094	0.692233
 94.4194	0.692234
 94.4294	0.692234
 94.4394	0.692235
 94.4494	0.692236
 94.4594	0.692236
 94.4694	0.692237
 94.4794	0.692238
 94.4894	0.692239
 94.4994	0.692239
 94.5095	0.69224
 94.5195	0.692241
 94.5295	0.692241
 94.5395	0.692242
 94.5495	0.692243
 94.5595	0.692244
 94.5695	0.692244
 94.5795	0.692245
 94.5895	0.692246
 94.5995	0.692246
 94.6095	0.692247
 94.6195	0.692248
 94.6295	0.692249
 94.6395	0.692249
 94.6495	0.69225
 94.6595	0.692251
 94.6695	0.692251
 94.6795	0.692252
 94.6895	0.692253
 94.6995	0.692254
 94.7095	0.692254
 94.7195	0.692255
 94.7295	0.692256
 94.7395	0.692256
 94.7495	0.692257
 94.7595	0.692258
 94.7695	0.692258
 94.7795	0.692259
 94.7895	0.69226
 94.7995	0.692261
 94.8095	0.692261
 94.8195	0.692262
 94.8295	0.692263
 94.8395	0.692263
 94.8495	0.692264
 94.8595	0.692265
 94.8695	0.692266
 94.8795	0.692266
 94.8895	0.692267
 94.8995	0.692268
 94.9095	0.692268
 94.9195	0.692269
 94.9295	0.69227
 94.9395	0.692271
 94.9495	0.692271
 94.9595	0.692272
 94.9695	0.692273
 94.9795	0.692273
 94.9895	0.692274
 94.9995	0.692275
 95.0095	0.692276
 95.0195	0.692276
 95.0295	0.692277
 95.0395	0.692278
 95.0495	0.692278
 95.0595	0.692279
 95.0695	0.69228
 95.0795	0.69228
 95.0895	0.692281
 95.0995	0.692282
 95.1095	0.692283
 95.1195	0.692283
 95.1295	0.692284
 95.1395	0.692285
 95.1495	0.692285
 95.1595	0.692286
 95.1695	0.692287
 95.1795	0.692288
 95.1895	0.692288
 95.1995	0.692289
 95.2095	0.69229
 95.2195	0.69229
 95.2295	0.692291
 95.2395	0.692292
 95.2495	0.692293
 95.2595	0.692293
 95.2695	0.692294
 95.2795	0.692295
 95.2895	0.692295
 95.2995	0.692296
 95.3095	0.692297
 95.3195	0.692298
 95.3295	0.692298
 95.3395	0.692299
 95.3495	0.6923
 95.3595	0.6923
 95.3695	0.692301
 95.3795	0.692302
 95.3895	0.692302
 95.3995	0.692303
 95.4095	0.692304
 95.4195	0.692305
 95.4295	0.692305
 95.4395	0.692306
 95.4495	0.692307
 95.4595	0.692307
 95.4695	0.692308
 95.4795	0.692309
 95.4895	0.69231
 95.4995	0.69231
 95.5096	0.692311
 95.5196	0.692312
 95.5296	0.692312
 95.5396	0.692313
 95.5496	0.692314
 95.5596	0.692315
 95.5696	0.692315
 95.5796	0.692316
 95.5896	0.692317
 95.5996	0.692317
 95.6096	0.692318
 95.6196	0.692319
 95.6296	0.69232
 95.6396	0.69232
 95.6496	0.692321
 95.6596	0.692322
 95.6696	0.692322
 95.6796	0.692323
 95.6896	0.692324
 95.6996	0.692324
 95.7096	0.692325
 95.7196	0.692326
 95.7296	0.692327
 95.7396	0.692327
 95.7496	0.692328
 95.7596	0.692329
 95.7696	0.692329
 95.7796	0.69233
 95.7896	0.692331
 95.7996	0.692332
 95.8096	0.692332
 95.8196	0.692333
 95.8296	0.692334
 95.8396	0.692334
 95.8496	0.692335
 95.8596	0.692336
 95.8696	0.692337
 95.8796	0.692337
 95.8896	0.692338
 95.8996	0.692339
 95.9096	0.692339
 95.9196	0.69234
 95.9296	0.692341
 95.9396	0.692342
 95.9496	0.692342
 95.9596	0.692343
 95.9696	0.692344
 95.9796	0.692344
 95.9896	0.692345
 95.9996	0.692346
 96.0096	0.692346
 96.0196	0.692347
 96.0296	0.692348
 96.0396	0.692349
 96.0496	0.692349
 96.0596	0.69235
 96.0696	0.692351
 96.0796	0.692351
 96.0896	0.692352
 96.0996	0.692353
 96.1096	0.692354
 96.1196	0.692354
 96.1296	0.692355
 96.1396	0.692356
 96.1496	0.692356
 96.1596	0.692357
 96.1696	0.692358
 96.1796	0.692359
 96.1896	0.692359
 96.1996	0.69236
 96.2096	0.692361
 96.2196	0.692361
 96.2296	0.692362
 96.2396	0.692363
 96.2496	0.692364
 96.2596	0.692364
 96.2696	0.692365
 96.2796	0.692366
 96.2896	0.692366
 96.2996	0.692367
 96.3096	0.692368
 96.3196	0.692368
 96.3296	0.692369
 96.3396	0.69237
 96.3496	0.692371
 96.3596	0.692371
 96.3696	0.692372
 96.3796	0.692373
 96.3896	0.692373
 96.3996	0.692374
 96.4096	0.692375
 96.4196	0.692376
 96.4296	0.692376
 96.4396	0.692377
 96.4496	0.692378
 96.4596	0.692378
 96.4696	0.692379
 96.4796	0.69238
 96.4896	0.692381
 96.4996	0.692381
 96.5097	0.692382
 96.5197	0.692383
 96.5297	0.692383
 96.5397	0.692384
 96.5497	0.692385
 96.5597	0.692386
 96.5697	0.692386
 96.5797	0.692387
 96.5897	0.692388
 96.5997	0.692388
 96.6097	0.692389
 96.6197	0.69239
 96.6297	0.69239
 96.6397	0.692391
 96.6497	0.692392
 96.6597	0.692393
 96.6697	0.692393
 96.6797	0.692394
 96.6897	0.692395
 96.6997	0.692395
 96.7097	0.692396
 96.7197	0.692397
 96.7297	0.692398
 96.7397	0.692398
 96.7497	0.692399
 96.7597	0.6924
 96.7697	0.6924
 96.7797	0.692401
 96.7897	0.692402
 96.7997	0.692403
 96.8097	0.692403
 96.8197	0.692404
 96.8297	0.692405
 96.8397	0.692405
 96.8497	0.692406
 96.8597	0.692407
 96.8697	0.692408
 96.8797	0.692408
 96.8897	0.692409
 96.8997	0.69241
 96.9097	0.69241
 96.9197	0.692411
 96.9297	0.692412
 96.9397	0.692412
 96.9497	0.692413
 96.9597	0.692414
 96.9697	0.692415
 96.9797	0.692415
 96.9897	0.692416
 96.9997	0.692417
 97.0097	0.692417
 97.0197	0.692418
 97.0297	0.692419
 97.0397	0.69242
 97.0497	0.69242
 97.0597	0.692421
 97.0697	0.692422
 97.0797	0.692422
 97.0897	0.692423
 97.0997	0.692424
 97.1097	0.692425
 97.1197	0.692425
 97.1297	0.692426
 97.1397	0.692427
 97.1497	0.692427
 97.1597	0.692428
 97.1697	0.692429
 97.1797	0.69243
 97.1897	0.69243
 97.1997	0.692431
 97.2097	0.692432
 97.2197	0.692432
 97.2297	0.692433
 97.2397	0.692434
 97.2497	0.692435
 97.2597	0.692435
 97.2697	0.692436
 97.2797	0.692437
 97.2897	0.692437
 97.2997	0.692438
 97.3097	0.692439
 97.3197	0.692439
 97.3297	0.69244
 97.3397	0.692441
 97.3497	0.692442
 97.3597	0.692442
 97.3697	0.692443
 97.3797	0.692444
 97.3897	0.692444
 97.3997	0.692445
 97.4097	0.692446
 97.4197	0.692447
 97.4297	0.692447
 97.4397	0.692448
 97.4497	0.692449
 97.4597	0.692449
 97.4697	0.69245
 97.4797	0.692451
 97.4897	0.692452
 97.4997	0.692452
 97.5098	0.692453
 97.5198	0.692454
 97.5298	0.692454
 97.5398	0.692455
 97.5498	0.692456
 97.5598	0.692457
 97.5698	0.692457
 97.5798	0.692458
 97.5898	0.692459
 97.5998	0.692459
 97.6098	0.69246
 97.6198	0.692461
 97.6298	0.692461
 97.6398	0.692462
 97.6498	0.692463
 97.6598	0.692464
 97.6698	0.692464
 97.6798	0.692465
 97.6898	0.692466
 97.6998	0.692466
 97.7098	0.692467
 97.7198	0.692468
 97.7298	0.692469
 97.7398	0.692469
 97.7498	0.69247
 97.7598	0.692471
 97.7698	0.692471
 97.7798	0.692472
 97.7898	0.692473
 97.7998	0.692474
 97.8098	0.692474
 97.8198	0.692475
 97.8298	0.692476
 97.8398	0.692476
 97.8498	0.692477
 97.8598	0.692478
 97.8698	0.692479
 97.8798	0.692479
 97.8898	0.69248
 97.8998	0.692481
 97.9098	0.692481
 97.9198	0.692482
 97.9298	0.692483
 97.9398	0.692483
 97.9498	0.692484
 97.9598	0.692485
 97.9698	0.692486
 97.9798	0.692486
 97.9898	0.692487
 97.9998	0.692488
 98.0098	0.692488
 98.0198	0.692489
 98.0298	0.69249
 98.0398	0.692491
 98.0498	0.692491
 98.0598	0.692492
 98.0698	0.692493
 98.0798	0.692493
 98.0898	0.692494
 98.0998	0.692495
 98.1098	0.692496
 98.1198	0.692496
 98.1298	0.692497
 98.1398	0.692498
 98.1498	0.692498
 98.1598	0.692499
 98.1698	0.6925
 98.1798	0.692501
 98.1898	0.692501
 98.1998	0.692502
 98.2098	0.692503
 98.2198	0.692503
 98.2298	0.692504
 98.2398	0.692505
 98.2498	0.692505
 98.2598	0.692506
 98.2698	0.692507
 98.2798	0.692508
 98.2898	0.692508
 98.2998	0.692509
 98.3098	0.69251
 98.3198	0.69251
 98.3298	0.692511
 98.3398	0.692512
 98.3498	0.692513
 98.3598	0.692513
 98.3698	0.692514
 98.3798	0.692515
 98.3898	0.692515
 98.3998	0.692516
 98.4098	0.692517
 98.4198	0.692518
 98.4298	0.692518
 98.4398	0.692519
 98.4498	0.69252
 98.4598	0.69252
 98.4698	0.692521
 98.4798	0.692522
 98.4898	0.692523
 98.4998	0.692523
 98.5099	0.692524
 98.5199	0.692525
 98.5299	0.692525
 98.5399	0.692526
 98.5499	0.692527
 98.5599	0.692527
 98.5699	0.692528
 98.5799	0.692529
 98.5899	0.69253
 98.5999	0.69253
 98.6099	0.692531
 98.6199	0.692532
 98.6299	0.692532
 98.6399	0.692533
 98.6499	0.692534
 98.6599	0.692535
 98.6699	0.692535
 98.6799	0.692536
 98.6899	0.692537
 98.6999	0.692537
 98.7099	0.692538
 98.7199	0.692539
 98.7299	0.69254
 98.7399	0.69254
 98.7499	0.692541
 98.7599	0.692542
 98.7699	0.692542
 98.7799	0.692543
 98.7899	0.692544
 98.7999	0.692545
 98.8099	0.692545
 98.8199	0.692546
 98.8299	0.692547
 98.8399	0.692547
 98.8499	0.692548
 98.8599	0.692549
 98.8699	0.692549
 98.8799	0.69255
 98.8899	0.692551
 98.8999	0.692552
 98.9099	0.692552
 98.9199	0.692553
 98.9299	0.692554
 98.9399	0.692554
 98.9499	0.692555
 98.9599	0.692556
 98.9699	0.692557
 98.9799	0.692557
 98.9899	0.692558
 98.9999	0.692559
 99.0099	0.692559
 99.0199	0.69256
 99.0299	0.692561
 99.0399	0.692562
 99.0499	0.692562
 99.0599	0.692563
 99.0699	0.692564
 99.0799	0.692564
 99.0899	0.692565
 99.0999	0.692566
 99.1099	0.692567
 99.1199	0.692567
 99.1299	0.692568
 99.1399	0.692569
 99.1499	0.692569
 99.1599	0.69257
 99.1699	0.692571
 99.1799	0.692571
 99.1899	0.692572
 99.1999	0.692573
 99.2099	0.692574
 99.2199	0.692574
 99.2299	0.692575
 99.2399	0.692576
 99.2499	0.692576
 99.2599	0.692577
 99.2699	0.692578
 99.2799	0.692579
 99.2899	0.692579
 99.2999	0.69258
 99.3099	0.692581
 99.3199	0.692581
 99.3299	0.692582
 99.3399	0.692583
 99.3499	0.692584
 99.3599	0.692584
 99.3699	0.692585
 99.3799	0.692586
 99.3899	0.692586
 99.3999	0.692587
 99.4099	0.692588
 99.4199	0.692589
 99.4299	0.692589
 99.4399	0.69259
 99.4499	0.692591
 99.4599	0.692591
 99.4699	0.692592
 99.4799	0.692593
 99.4899	0.692593
 99.4999	0.692594
 99.51	0.692595
 99.52	0.692596
 99.53	0.692596
 99.54	0.692597
 99.55	0.692598
 99.56	0.692598
 99.57	0.692599
 99.58	0.6926
 99.59	0.692601
 99.6	0.692601
 99.61	0.692602
 99.62	0.692603
 99.63	0.692603
 99.64	0.692604
 99.65	0.692605
 99.66	0.692606
 99.67	0.692606
 99.68	0.692607
 99.69	0.692608
 99.7	0.692608
 99.71	0.692609
 99.72	0.69261
 99.73	0.692611
 99.74	0.692611
 99.75	0.692612
 99.76	0.692613
 99.77	0.692613
 99.78	0.692614
 99.79	0.692615
 99.8	0.692616
 99.81	0.692616
 99.82	0.692617
 99.83	0.692618
 99.84	0.692618
 99.85	0.692619
 99.86	0.69262
 99.87	0.69262
 99.88	0.692621
 99.89	0.692622
 99.9	0.692623
 99.91	0.692623
 99.92	0.692624
 99.93	0.692625
 99.94	0.692625
 99.95	0.692626
 99.96	0.692627
 99.97	0.692628
 99.98	0.692628
 99.99	0.692629
 100	0.69263
